# E (eV)   ldos(E)   pdos(E)   
 -12.000  0.295E-01  0.295E-01
 -11.990  0.281E-01  0.281E-01
 -11.980  0.269E-01  0.269E-01
 -11.970  0.259E-01  0.259E-01
 -11.960  0.250E-01  0.250E-01
 -11.950  0.243E-01  0.243E-01
 -11.940  0.237E-01  0.237E-01
 -11.930  0.233E-01  0.233E-01
 -11.920  0.230E-01  0.230E-01
 -11.910  0.229E-01  0.229E-01
 -11.900  0.228E-01  0.228E-01
 -11.890  0.227E-01  0.227E-01
 -11.880  0.227E-01  0.227E-01
 -11.870  0.226E-01  0.226E-01
 -11.860  0.225E-01  0.225E-01
 -11.850  0.223E-01  0.223E-01
 -11.840  0.220E-01  0.220E-01
 -11.830  0.216E-01  0.216E-01
 -11.820  0.211E-01  0.211E-01
 -11.810  0.205E-01  0.205E-01
 -11.800  0.199E-01  0.199E-01
 -11.790  0.193E-01  0.193E-01
 -11.780  0.187E-01  0.187E-01
 -11.770  0.181E-01  0.181E-01
 -11.760  0.177E-01  0.177E-01
 -11.750  0.173E-01  0.173E-01
 -11.740  0.172E-01  0.172E-01
 -11.730  0.172E-01  0.172E-01
 -11.720  0.175E-01  0.175E-01
 -11.710  0.181E-01  0.181E-01
 -11.700  0.189E-01  0.189E-01
 -11.690  0.201E-01  0.201E-01
 -11.680  0.215E-01  0.215E-01
 -11.670  0.232E-01  0.232E-01
 -11.660  0.251E-01  0.251E-01
 -11.650  0.272E-01  0.272E-01
 -11.640  0.295E-01  0.295E-01
 -11.630  0.319E-01  0.319E-01
 -11.620  0.342E-01  0.342E-01
 -11.610  0.365E-01  0.365E-01
 -11.600  0.387E-01  0.387E-01
 -11.590  0.407E-01  0.407E-01
 -11.580  0.425E-01  0.425E-01
 -11.570  0.439E-01  0.439E-01
 -11.560  0.449E-01  0.449E-01
 -11.550  0.455E-01  0.455E-01
 -11.540  0.457E-01  0.457E-01
 -11.530  0.455E-01  0.455E-01
 -11.520  0.448E-01  0.448E-01
 -11.510  0.437E-01  0.437E-01
 -11.500  0.422E-01  0.422E-01
 -11.490  0.405E-01  0.405E-01
 -11.480  0.384E-01  0.384E-01
 -11.470  0.362E-01  0.362E-01
 -11.460  0.338E-01  0.338E-01
 -11.450  0.314E-01  0.314E-01
 -11.440  0.290E-01  0.290E-01
 -11.430  0.267E-01  0.267E-01
 -11.420  0.246E-01  0.246E-01
 -11.410  0.226E-01  0.226E-01
 -11.400  0.208E-01  0.208E-01
 -11.390  0.194E-01  0.194E-01
 -11.380  0.182E-01  0.182E-01
 -11.370  0.173E-01  0.173E-01
 -11.360  0.166E-01  0.166E-01
 -11.350  0.163E-01  0.163E-01
 -11.340  0.162E-01  0.162E-01
 -11.330  0.163E-01  0.163E-01
 -11.320  0.166E-01  0.166E-01
 -11.310  0.170E-01  0.170E-01
 -11.300  0.175E-01  0.175E-01
 -11.290  0.181E-01  0.181E-01
 -11.280  0.188E-01  0.188E-01
 -11.270  0.194E-01  0.194E-01
 -11.260  0.199E-01  0.199E-01
 -11.250  0.204E-01  0.204E-01
 -11.240  0.208E-01  0.208E-01
 -11.230  0.211E-01  0.211E-01
 -11.220  0.213E-01  0.213E-01
 -11.210  0.215E-01  0.215E-01
 -11.200  0.215E-01  0.215E-01
 -11.190  0.215E-01  0.215E-01
 -11.180  0.216E-01  0.216E-01
 -11.170  0.216E-01  0.216E-01
 -11.160  0.217E-01  0.217E-01
 -11.150  0.220E-01  0.220E-01
 -11.140  0.223E-01  0.223E-01
 -11.130  0.229E-01  0.229E-01
 -11.120  0.237E-01  0.237E-01
 -11.110  0.247E-01  0.247E-01
 -11.100  0.260E-01  0.260E-01
 -11.090  0.275E-01  0.275E-01
 -11.080  0.291E-01  0.291E-01
 -11.070  0.310E-01  0.310E-01
 -11.060  0.330E-01  0.330E-01
 -11.050  0.351E-01  0.351E-01
 -11.040  0.372E-01  0.372E-01
 -11.030  0.393E-01  0.393E-01
 -11.020  0.413E-01  0.413E-01
 -11.010  0.431E-01  0.431E-01
 -11.000  0.446E-01  0.446E-01
 -10.990  0.459E-01  0.459E-01
 -10.980  0.468E-01  0.468E-01
 -10.970  0.473E-01  0.473E-01
 -10.960  0.474E-01  0.474E-01
 -10.950  0.470E-01  0.470E-01
 -10.940  0.463E-01  0.463E-01
 -10.930  0.451E-01  0.451E-01
 -10.920  0.436E-01  0.436E-01
 -10.910  0.418E-01  0.418E-01
 -10.900  0.398E-01  0.398E-01
 -10.890  0.375E-01  0.375E-01
 -10.880  0.351E-01  0.351E-01
 -10.870  0.326E-01  0.326E-01
 -10.860  0.302E-01  0.302E-01
 -10.850  0.278E-01  0.278E-01
 -10.840  0.255E-01  0.255E-01
 -10.830  0.234E-01  0.234E-01
 -10.820  0.216E-01  0.216E-01
 -10.810  0.199E-01  0.199E-01
 -10.800  0.186E-01  0.186E-01
 -10.790  0.176E-01  0.176E-01
 -10.780  0.168E-01  0.168E-01
 -10.770  0.163E-01  0.163E-01
 -10.760  0.160E-01  0.160E-01
 -10.750  0.160E-01  0.160E-01
 -10.740  0.162E-01  0.162E-01
 -10.730  0.165E-01  0.165E-01
 -10.720  0.170E-01  0.170E-01
 -10.710  0.175E-01  0.175E-01
 -10.700  0.181E-01  0.181E-01
 -10.690  0.186E-01  0.186E-01
 -10.680  0.192E-01  0.192E-01
 -10.670  0.197E-01  0.197E-01
 -10.660  0.201E-01  0.201E-01
 -10.650  0.205E-01  0.205E-01
 -10.640  0.209E-01  0.209E-01
 -10.630  0.212E-01  0.212E-01
 -10.620  0.215E-01  0.215E-01
 -10.610  0.218E-01  0.218E-01
 -10.600  0.222E-01  0.222E-01
 -10.590  0.227E-01  0.227E-01
 -10.580  0.233E-01  0.233E-01
 -10.570  0.240E-01  0.240E-01
 -10.560  0.250E-01  0.250E-01
 -10.550  0.262E-01  0.262E-01
 -10.540  0.276E-01  0.276E-01
 -10.530  0.292E-01  0.292E-01
 -10.520  0.311E-01  0.311E-01
 -10.510  0.331E-01  0.331E-01
 -10.500  0.353E-01  0.353E-01
 -10.490  0.375E-01  0.375E-01
 -10.480  0.398E-01  0.398E-01
 -10.470  0.421E-01  0.421E-01
 -10.460  0.442E-01  0.442E-01
 -10.450  0.462E-01  0.462E-01
 -10.440  0.479E-01  0.479E-01
 -10.430  0.493E-01  0.493E-01
 -10.420  0.504E-01  0.504E-01
 -10.410  0.510E-01  0.510E-01
 -10.400  0.513E-01  0.513E-01
 -10.390  0.511E-01  0.511E-01
 -10.380  0.505E-01  0.505E-01
 -10.370  0.495E-01  0.495E-01
 -10.360  0.482E-01  0.482E-01
 -10.350  0.466E-01  0.466E-01
 -10.340  0.448E-01  0.448E-01
 -10.330  0.428E-01  0.428E-01
 -10.320  0.407E-01  0.407E-01
 -10.310  0.386E-01  0.386E-01
 -10.300  0.365E-01  0.365E-01
 -10.290  0.345E-01  0.345E-01
 -10.280  0.327E-01  0.327E-01
 -10.270  0.310E-01  0.310E-01
 -10.260  0.295E-01  0.295E-01
 -10.250  0.282E-01  0.282E-01
 -10.240  0.271E-01  0.271E-01
 -10.230  0.262E-01  0.262E-01
 -10.220  0.254E-01  0.254E-01
 -10.210  0.248E-01  0.248E-01
 -10.200  0.243E-01  0.243E-01
 -10.190  0.239E-01  0.239E-01
 -10.180  0.235E-01  0.235E-01
 -10.170  0.232E-01  0.232E-01
 -10.160  0.230E-01  0.230E-01
 -10.150  0.228E-01  0.228E-01
 -10.140  0.226E-01  0.226E-01
 -10.130  0.224E-01  0.224E-01
 -10.120  0.223E-01  0.223E-01
 -10.110  0.222E-01  0.222E-01
 -10.100  0.223E-01  0.223E-01
 -10.090  0.224E-01  0.224E-01
 -10.080  0.227E-01  0.227E-01
 -10.070  0.231E-01  0.231E-01
 -10.060  0.236E-01  0.236E-01
 -10.050  0.243E-01  0.243E-01
 -10.040  0.253E-01  0.253E-01
 -10.030  0.264E-01  0.264E-01
 -10.020  0.277E-01  0.277E-01
 -10.010  0.292E-01  0.292E-01
 -10.000  0.309E-01  0.309E-01
  -9.990  0.327E-01  0.327E-01
  -9.980  0.347E-01  0.347E-01
  -9.970  0.368E-01  0.368E-01
  -9.960  0.390E-01  0.390E-01
  -9.950  0.413E-01  0.413E-01
  -9.940  0.436E-01  0.436E-01
  -9.930  0.458E-01  0.458E-01
  -9.920  0.480E-01  0.480E-01
  -9.910  0.501E-01  0.501E-01
  -9.900  0.521E-01  0.521E-01
  -9.890  0.539E-01  0.539E-01
  -9.880  0.555E-01  0.555E-01
  -9.870  0.569E-01  0.569E-01
  -9.860  0.580E-01  0.580E-01
  -9.850  0.588E-01  0.588E-01
  -9.840  0.593E-01  0.593E-01
  -9.830  0.596E-01  0.596E-01
  -9.820  0.595E-01  0.595E-01
  -9.810  0.593E-01  0.593E-01
  -9.800  0.588E-01  0.588E-01
  -9.790  0.581E-01  0.581E-01
  -9.780  0.573E-01  0.573E-01
  -9.770  0.564E-01  0.564E-01
  -9.760  0.554E-01  0.554E-01
  -9.750  0.544E-01  0.544E-01
  -9.740  0.534E-01  0.534E-01
  -9.730  0.524E-01  0.524E-01
  -9.720  0.515E-01  0.515E-01
  -9.710  0.506E-01  0.506E-01
  -9.700  0.498E-01  0.498E-01
  -9.690  0.490E-01  0.490E-01
  -9.680  0.483E-01  0.483E-01
  -9.670  0.475E-01  0.475E-01
  -9.660  0.467E-01  0.467E-01
  -9.650  0.459E-01  0.459E-01
  -9.640  0.450E-01  0.450E-01
  -9.630  0.439E-01  0.439E-01
  -9.620  0.428E-01  0.428E-01
  -9.610  0.415E-01  0.415E-01
  -9.600  0.400E-01  0.400E-01
  -9.590  0.384E-01  0.384E-01
  -9.580  0.367E-01  0.367E-01
  -9.570  0.348E-01  0.348E-01
  -9.560  0.329E-01  0.329E-01
  -9.550  0.309E-01  0.309E-01
  -9.540  0.289E-01  0.289E-01
  -9.530  0.270E-01  0.270E-01
  -9.520  0.251E-01  0.251E-01
  -9.510  0.234E-01  0.234E-01
  -9.500  0.219E-01  0.219E-01
  -9.490  0.206E-01  0.206E-01
  -9.480  0.195E-01  0.195E-01
  -9.470  0.187E-01  0.187E-01
  -9.460  0.183E-01  0.183E-01
  -9.450  0.181E-01  0.181E-01
  -9.440  0.183E-01  0.183E-01
  -9.430  0.188E-01  0.188E-01
  -9.420  0.196E-01  0.196E-01
  -9.410  0.207E-01  0.207E-01
  -9.400  0.220E-01  0.220E-01
  -9.390  0.234E-01  0.234E-01
  -9.380  0.250E-01  0.250E-01
  -9.370  0.266E-01  0.266E-01
  -9.360  0.283E-01  0.283E-01
  -9.350  0.299E-01  0.299E-01
  -9.340  0.313E-01  0.313E-01
  -9.330  0.326E-01  0.326E-01
  -9.320  0.337E-01  0.337E-01
  -9.310  0.344E-01  0.344E-01
  -9.300  0.349E-01  0.349E-01
  -9.290  0.350E-01  0.350E-01
  -9.280  0.348E-01  0.348E-01
  -9.270  0.343E-01  0.343E-01
  -9.260  0.334E-01  0.334E-01
  -9.250  0.323E-01  0.323E-01
  -9.240  0.309E-01  0.309E-01
  -9.230  0.293E-01  0.293E-01
  -9.220  0.275E-01  0.275E-01
  -9.210  0.257E-01  0.257E-01
  -9.200  0.238E-01  0.238E-01
  -9.190  0.219E-01  0.219E-01
  -9.180  0.201E-01  0.201E-01
  -9.170  0.183E-01  0.183E-01
  -9.160  0.167E-01  0.167E-01
  -9.150  0.152E-01  0.152E-01
  -9.140  0.139E-01  0.139E-01
  -9.130  0.127E-01  0.127E-01
  -9.120  0.118E-01  0.118E-01
  -9.110  0.110E-01  0.110E-01
  -9.100  0.105E-01  0.105E-01
  -9.090  0.101E-01  0.101E-01
  -9.080  0.984E-02  0.984E-02
  -9.070  0.975E-02  0.975E-02
  -9.060  0.980E-02  0.980E-02
  -9.050  0.996E-02  0.996E-02
  -9.040  0.102E-01  0.102E-01
  -9.030  0.106E-01  0.106E-01
  -9.020  0.111E-01  0.111E-01
  -9.010  0.117E-01  0.117E-01
  -9.000  0.125E-01  0.125E-01
  -8.990  0.133E-01  0.133E-01
  -8.980  0.143E-01  0.143E-01
  -8.970  0.154E-01  0.154E-01
  -8.960  0.167E-01  0.167E-01
  -8.950  0.181E-01  0.181E-01
  -8.940  0.198E-01  0.198E-01
  -8.930  0.216E-01  0.216E-01
  -8.920  0.236E-01  0.236E-01
  -8.910  0.258E-01  0.258E-01
  -8.900  0.281E-01  0.281E-01
  -8.890  0.305E-01  0.305E-01
  -8.880  0.330E-01  0.330E-01
  -8.870  0.356E-01  0.356E-01
  -8.860  0.382E-01  0.382E-01
  -8.850  0.407E-01  0.407E-01
  -8.840  0.430E-01  0.430E-01
  -8.830  0.452E-01  0.452E-01
  -8.820  0.471E-01  0.471E-01
  -8.810  0.487E-01  0.487E-01
  -8.800  0.500E-01  0.500E-01
  -8.790  0.509E-01  0.509E-01
  -8.780  0.513E-01  0.513E-01
  -8.770  0.513E-01  0.513E-01
  -8.760  0.508E-01  0.508E-01
  -8.750  0.499E-01  0.499E-01
  -8.740  0.486E-01  0.486E-01
  -8.730  0.468E-01  0.468E-01
  -8.720  0.448E-01  0.448E-01
  -8.710  0.424E-01  0.424E-01
  -8.700  0.399E-01  0.399E-01
  -8.690  0.371E-01  0.371E-01
  -8.680  0.343E-01  0.343E-01
  -8.670  0.314E-01  0.314E-01
  -8.660  0.286E-01  0.286E-01
  -8.650  0.258E-01  0.258E-01
  -8.640  0.232E-01  0.232E-01
  -8.630  0.208E-01  0.208E-01
  -8.620  0.186E-01  0.186E-01
  -8.610  0.167E-01  0.167E-01
  -8.600  0.150E-01  0.150E-01
  -8.590  0.136E-01  0.136E-01
  -8.580  0.125E-01  0.125E-01
  -8.570  0.117E-01  0.117E-01
  -8.560  0.112E-01  0.112E-01
  -8.550  0.110E-01  0.110E-01
  -8.540  0.112E-01  0.112E-01
  -8.530  0.116E-01  0.116E-01
  -8.520  0.123E-01  0.123E-01
  -8.510  0.132E-01  0.132E-01
  -8.500  0.145E-01  0.145E-01
  -8.490  0.160E-01  0.160E-01
  -8.480  0.177E-01  0.177E-01
  -8.470  0.197E-01  0.197E-01
  -8.460  0.219E-01  0.219E-01
  -8.450  0.243E-01  0.243E-01
  -8.440  0.269E-01  0.269E-01
  -8.430  0.295E-01  0.295E-01
  -8.420  0.323E-01  0.323E-01
  -8.410  0.350E-01  0.350E-01
  -8.400  0.377E-01  0.377E-01
  -8.390  0.402E-01  0.402E-01
  -8.380  0.426E-01  0.426E-01
  -8.370  0.448E-01  0.448E-01
  -8.360  0.466E-01  0.466E-01
  -8.350  0.481E-01  0.481E-01
  -8.340  0.492E-01  0.492E-01
  -8.330  0.498E-01  0.498E-01
  -8.320  0.500E-01  0.500E-01
  -8.310  0.497E-01  0.497E-01
  -8.300  0.490E-01  0.490E-01
  -8.290  0.479E-01  0.479E-01
  -8.280  0.464E-01  0.464E-01
  -8.270  0.446E-01  0.446E-01
  -8.260  0.426E-01  0.426E-01
  -8.250  0.404E-01  0.404E-01
  -8.240  0.382E-01  0.382E-01
  -8.230  0.360E-01  0.360E-01
  -8.220  0.339E-01  0.339E-01
  -8.210  0.319E-01  0.319E-01
  -8.200  0.302E-01  0.302E-01
  -8.190  0.289E-01  0.289E-01
  -8.180  0.278E-01  0.278E-01
  -8.170  0.272E-01  0.272E-01
  -8.160  0.270E-01  0.270E-01
  -8.150  0.272E-01  0.272E-01
  -8.140  0.278E-01  0.278E-01
  -8.130  0.288E-01  0.288E-01
  -8.120  0.302E-01  0.302E-01
  -8.110  0.318E-01  0.318E-01
  -8.100  0.337E-01  0.337E-01
  -8.090  0.359E-01  0.359E-01
  -8.080  0.381E-01  0.381E-01
  -8.070  0.405E-01  0.405E-01
  -8.060  0.429E-01  0.429E-01
  -8.050  0.452E-01  0.452E-01
  -8.040  0.474E-01  0.474E-01
  -8.030  0.496E-01  0.496E-01
  -8.020  0.515E-01  0.515E-01
  -8.010  0.532E-01  0.532E-01
  -8.000  0.546E-01  0.546E-01
  -7.990  0.557E-01  0.557E-01
  -7.980  0.566E-01  0.566E-01
  -7.970  0.571E-01  0.571E-01
  -7.960  0.573E-01  0.573E-01
  -7.950  0.572E-01  0.572E-01
  -7.940  0.567E-01  0.567E-01
  -7.930  0.560E-01  0.560E-01
  -7.920  0.550E-01  0.550E-01
  -7.910  0.539E-01  0.539E-01
  -7.900  0.525E-01  0.525E-01
  -7.890  0.510E-01  0.510E-01
  -7.880  0.495E-01  0.495E-01
  -7.870  0.479E-01  0.479E-01
  -7.860  0.464E-01  0.464E-01
  -7.850  0.450E-01  0.450E-01
  -7.840  0.438E-01  0.438E-01
  -7.830  0.427E-01  0.427E-01
  -7.820  0.419E-01  0.419E-01
  -7.810  0.414E-01  0.414E-01
  -7.800  0.411E-01  0.411E-01
  -7.790  0.412E-01  0.412E-01
  -7.780  0.415E-01  0.415E-01
  -7.770  0.421E-01  0.421E-01
  -7.760  0.430E-01  0.430E-01
  -7.750  0.441E-01  0.441E-01
  -7.740  0.454E-01  0.454E-01
  -7.730  0.468E-01  0.468E-01
  -7.720  0.484E-01  0.484E-01
  -7.710  0.500E-01  0.500E-01
  -7.700  0.517E-01  0.517E-01
  -7.690  0.533E-01  0.533E-01
  -7.680  0.549E-01  0.549E-01
  -7.670  0.564E-01  0.564E-01
  -7.660  0.579E-01  0.579E-01
  -7.650  0.592E-01  0.592E-01
  -7.640  0.605E-01  0.605E-01
  -7.630  0.616E-01  0.616E-01
  -7.620  0.627E-01  0.627E-01
  -7.610  0.637E-01  0.637E-01
  -7.600  0.646E-01  0.646E-01
  -7.590  0.655E-01  0.655E-01
  -7.580  0.665E-01  0.665E-01
  -7.570  0.674E-01  0.674E-01
  -7.560  0.685E-01  0.685E-01
  -7.550  0.697E-01  0.697E-01
  -7.540  0.711E-01  0.711E-01
  -7.530  0.726E-01  0.726E-01
  -7.520  0.743E-01  0.743E-01
  -7.510  0.763E-01  0.763E-01
  -7.500  0.784E-01  0.784E-01
  -7.490  0.808E-01  0.808E-01
  -7.480  0.834E-01  0.834E-01
  -7.470  0.861E-01  0.861E-01
  -7.460  0.890E-01  0.890E-01
  -7.450  0.920E-01  0.920E-01
  -7.440  0.950E-01  0.950E-01
  -7.430  0.980E-01  0.980E-01
  -7.420  0.101E+00  0.101E+00
  -7.410  0.104E+00  0.104E+00
  -7.400  0.106E+00  0.106E+00
  -7.390  0.108E+00  0.108E+00
  -7.380  0.110E+00  0.110E+00
  -7.370  0.111E+00  0.111E+00
  -7.360  0.112E+00  0.112E+00
  -7.350  0.112E+00  0.112E+00
  -7.340  0.112E+00  0.112E+00
  -7.330  0.111E+00  0.111E+00
  -7.320  0.109E+00  0.109E+00
  -7.310  0.106E+00  0.106E+00
  -7.300  0.103E+00  0.103E+00
  -7.290  0.997E-01  0.997E-01
  -7.280  0.955E-01  0.955E-01
  -7.270  0.908E-01  0.908E-01
  -7.260  0.857E-01  0.857E-01
  -7.250  0.803E-01  0.803E-01
  -7.240  0.746E-01  0.746E-01
  -7.230  0.688E-01  0.688E-01
  -7.220  0.630E-01  0.630E-01
  -7.210  0.572E-01  0.572E-01
  -7.200  0.515E-01  0.515E-01
  -7.190  0.460E-01  0.460E-01
  -7.180  0.407E-01  0.407E-01
  -7.170  0.357E-01  0.357E-01
  -7.160  0.311E-01  0.311E-01
  -7.150  0.269E-01  0.269E-01
  -7.140  0.230E-01  0.230E-01
  -7.130  0.195E-01  0.195E-01
  -7.120  0.164E-01  0.164E-01
  -7.110  0.137E-01  0.137E-01
  -7.100  0.113E-01  0.113E-01
  -7.090  0.927E-02  0.927E-02
  -7.080  0.753E-02  0.753E-02
  -7.070  0.606E-02  0.606E-02
  -7.060  0.484E-02  0.484E-02
  -7.050  0.382E-02  0.382E-02
  -7.040  0.300E-02  0.300E-02
  -7.030  0.233E-02  0.233E-02
  -7.020  0.179E-02  0.179E-02
  -7.010  0.137E-02  0.137E-02
  -7.000  0.103E-02  0.103E-02
  -6.990  0.774E-03  0.774E-03
  -6.980  0.575E-03  0.575E-03
  -6.970  0.423E-03  0.423E-03
  -6.960  0.309E-03  0.309E-03
  -6.950  0.224E-03  0.224E-03
  -6.940  0.161E-03  0.161E-03
  -6.930  0.115E-03  0.115E-03
  -6.920  0.815E-04  0.815E-04
  -6.910  0.578E-04  0.578E-04
  -6.900  0.411E-04  0.411E-04
  -6.890  0.295E-04  0.295E-04
  -6.880  0.216E-04  0.216E-04
  -6.870  0.164E-04  0.164E-04
  -6.860  0.133E-04  0.133E-04
  -6.850  0.116E-04  0.116E-04
  -6.840  0.111E-04  0.111E-04
  -6.830  0.118E-04  0.118E-04
  -6.820  0.135E-04  0.135E-04
  -6.810  0.166E-04  0.166E-04
  -6.800  0.213E-04  0.213E-04
  -6.790  0.282E-04  0.282E-04
  -6.780  0.380E-04  0.380E-04
  -6.770  0.516E-04  0.516E-04
  -6.760  0.703E-04  0.703E-04
  -6.750  0.956E-04  0.956E-04
  -6.740  0.130E-03  0.130E-03
  -6.730  0.175E-03  0.175E-03
  -6.720  0.234E-03  0.234E-03
  -6.710  0.310E-03  0.310E-03
  -6.700  0.408E-03  0.408E-03
  -6.690  0.532E-03  0.532E-03
  -6.680  0.686E-03  0.686E-03
  -6.670  0.877E-03  0.877E-03
  -6.660  0.111E-02  0.111E-02
  -6.650  0.139E-02  0.139E-02
  -6.640  0.172E-02  0.172E-02
  -6.630  0.210E-02  0.210E-02
  -6.620  0.255E-02  0.255E-02
  -6.610  0.305E-02  0.305E-02
  -6.600  0.362E-02  0.362E-02
  -6.590  0.425E-02  0.425E-02
  -6.580  0.493E-02  0.493E-02
  -6.570  0.566E-02  0.566E-02
  -6.560  0.643E-02  0.643E-02
  -6.550  0.723E-02  0.723E-02
  -6.540  0.804E-02  0.804E-02
  -6.530  0.884E-02  0.884E-02
  -6.520  0.962E-02  0.962E-02
  -6.510  0.104E-01  0.104E-01
  -6.500  0.110E-01  0.110E-01
  -6.490  0.116E-01  0.116E-01
  -6.480  0.121E-01  0.121E-01
  -6.470  0.125E-01  0.125E-01
  -6.460  0.127E-01  0.127E-01
  -6.450  0.128E-01  0.128E-01
  -6.440  0.128E-01  0.128E-01
  -6.430  0.127E-01  0.127E-01
  -6.420  0.124E-01  0.124E-01
  -6.410  0.119E-01  0.119E-01
  -6.400  0.114E-01  0.114E-01
  -6.390  0.108E-01  0.108E-01
  -6.380  0.101E-01  0.101E-01
  -6.370  0.935E-02  0.935E-02
  -6.360  0.856E-02  0.856E-02
  -6.350  0.775E-02  0.775E-02
  -6.340  0.694E-02  0.694E-02
  -6.330  0.615E-02  0.615E-02
  -6.320  0.540E-02  0.540E-02
  -6.310  0.468E-02  0.468E-02
  -6.300  0.402E-02  0.402E-02
  -6.290  0.341E-02  0.341E-02
  -6.280  0.286E-02  0.286E-02
  -6.270  0.238E-02  0.238E-02
  -6.260  0.195E-02  0.195E-02
  -6.250  0.159E-02  0.159E-02
  -6.240  0.128E-02  0.128E-02
  -6.230  0.102E-02  0.102E-02
  -6.220  0.801E-03  0.801E-03
  -6.210  0.624E-03  0.624E-03
  -6.200  0.481E-03  0.481E-03
  -6.190  0.368E-03  0.368E-03
  -6.180  0.278E-03  0.278E-03
  -6.170  0.208E-03  0.208E-03
  -6.160  0.155E-03  0.155E-03
  -6.150  0.114E-03  0.114E-03
  -6.140  0.842E-04  0.842E-04
  -6.130  0.622E-04  0.622E-04
  -6.120  0.465E-04  0.465E-04
  -6.110  0.358E-04  0.358E-04
  -6.100  0.291E-04  0.291E-04
  -6.090  0.256E-04  0.256E-04
  -6.080  0.251E-04  0.251E-04
  -6.070  0.274E-04  0.274E-04
  -6.060  0.327E-04  0.327E-04
  -6.050  0.415E-04  0.415E-04
  -6.040  0.547E-04  0.547E-04
  -6.030  0.733E-04  0.733E-04
  -6.020  0.990E-04  0.990E-04
  -6.010  0.134E-03  0.134E-03
  -6.000  0.180E-03  0.180E-03
  -5.990  0.241E-03  0.241E-03
  -5.980  0.319E-03  0.319E-03
  -5.970  0.420E-03  0.420E-03
  -5.960  0.548E-03  0.548E-03
  -5.950  0.707E-03  0.707E-03
  -5.940  0.904E-03  0.904E-03
  -5.930  0.114E-02  0.114E-02
  -5.920  0.143E-02  0.143E-02
  -5.910  0.178E-02  0.178E-02
  -5.900  0.218E-02  0.218E-02
  -5.890  0.265E-02  0.265E-02
  -5.880  0.318E-02  0.318E-02
  -5.870  0.378E-02  0.378E-02
  -5.860  0.444E-02  0.444E-02
  -5.850  0.517E-02  0.517E-02
  -5.840  0.595E-02  0.595E-02
  -5.830  0.678E-02  0.678E-02
  -5.820  0.764E-02  0.764E-02
  -5.810  0.851E-02  0.851E-02
  -5.800  0.939E-02  0.939E-02
  -5.790  0.102E-01  0.102E-01
  -5.780  0.111E-01  0.111E-01
  -5.770  0.118E-01  0.118E-01
  -5.760  0.125E-01  0.125E-01
  -5.750  0.130E-01  0.130E-01
  -5.740  0.135E-01  0.135E-01
  -5.730  0.138E-01  0.138E-01
  -5.720  0.139E-01  0.139E-01
  -5.710  0.140E-01  0.140E-01
  -5.700  0.138E-01  0.138E-01
  -5.690  0.136E-01  0.136E-01
  -5.680  0.131E-01  0.131E-01
  -5.670  0.126E-01  0.126E-01
  -5.660  0.120E-01  0.120E-01
  -5.650  0.112E-01  0.112E-01
  -5.640  0.105E-01  0.105E-01
  -5.630  0.961E-02  0.961E-02
  -5.620  0.875E-02  0.875E-02
  -5.610  0.789E-02  0.789E-02
  -5.600  0.704E-02  0.704E-02
  -5.590  0.622E-02  0.622E-02
  -5.580  0.544E-02  0.544E-02
  -5.570  0.472E-02  0.472E-02
  -5.560  0.405E-02  0.405E-02
  -5.550  0.346E-02  0.346E-02
  -5.540  0.292E-02  0.292E-02
  -5.530  0.246E-02  0.246E-02
  -5.520  0.205E-02  0.205E-02
  -5.510  0.171E-02  0.171E-02
  -5.500  0.142E-02  0.142E-02
  -5.490  0.118E-02  0.118E-02
  -5.480  0.978E-03  0.978E-03
  -5.470  0.817E-03  0.817E-03
  -5.460  0.688E-03  0.688E-03
  -5.450  0.586E-03  0.586E-03
  -5.440  0.507E-03  0.507E-03
  -5.430  0.446E-03  0.446E-03
  -5.420  0.401E-03  0.401E-03
  -5.410  0.368E-03  0.368E-03
  -5.400  0.347E-03  0.347E-03
  -5.390  0.337E-03  0.337E-03
  -5.380  0.335E-03  0.335E-03
  -5.370  0.344E-03  0.344E-03
  -5.360  0.363E-03  0.363E-03
  -5.350  0.394E-03  0.394E-03
  -5.340  0.439E-03  0.439E-03
  -5.330  0.501E-03  0.501E-03
  -5.320  0.583E-03  0.583E-03
  -5.310  0.690E-03  0.690E-03
  -5.300  0.825E-03  0.825E-03
  -5.290  0.995E-03  0.995E-03
  -5.280  0.120E-02  0.120E-02
  -5.270  0.146E-02  0.146E-02
  -5.260  0.176E-02  0.176E-02
  -5.250  0.213E-02  0.213E-02
  -5.240  0.255E-02  0.255E-02
  -5.230  0.304E-02  0.304E-02
  -5.220  0.360E-02  0.360E-02
  -5.210  0.422E-02  0.422E-02
  -5.200  0.491E-02  0.491E-02
  -5.190  0.566E-02  0.566E-02
  -5.180  0.646E-02  0.646E-02
  -5.170  0.731E-02  0.731E-02
  -5.160  0.818E-02  0.818E-02
  -5.150  0.907E-02  0.907E-02
  -5.140  0.995E-02  0.995E-02
  -5.130  0.108E-01  0.108E-01
  -5.120  0.116E-01  0.116E-01
  -5.110  0.123E-01  0.123E-01
  -5.100  0.130E-01  0.130E-01
  -5.090  0.135E-01  0.135E-01
  -5.080  0.139E-01  0.139E-01
  -5.070  0.142E-01  0.142E-01
  -5.060  0.143E-01  0.143E-01
  -5.050  0.143E-01  0.143E-01
  -5.040  0.141E-01  0.141E-01
  -5.030  0.138E-01  0.138E-01
  -5.020  0.133E-01  0.133E-01
  -5.010  0.127E-01  0.127E-01
  -5.000  0.120E-01  0.120E-01
  -4.990  0.113E-01  0.113E-01
  -4.980  0.104E-01  0.104E-01
  -4.970  0.954E-02  0.954E-02
  -4.960  0.864E-02  0.864E-02
  -4.950  0.774E-02  0.774E-02
  -4.940  0.687E-02  0.687E-02
  -4.930  0.603E-02  0.603E-02
  -4.920  0.523E-02  0.523E-02
  -4.910  0.450E-02  0.450E-02
  -4.900  0.382E-02  0.382E-02
  -4.890  0.322E-02  0.322E-02
  -4.880  0.268E-02  0.268E-02
  -4.870  0.221E-02  0.221E-02
  -4.860  0.181E-02  0.181E-02
  -4.850  0.147E-02  0.147E-02
  -4.840  0.118E-02  0.118E-02
  -4.830  0.950E-03  0.950E-03
  -4.820  0.763E-03  0.763E-03
  -4.810  0.619E-03  0.619E-03
  -4.800  0.512E-03  0.512E-03
  -4.790  0.439E-03  0.439E-03
  -4.780  0.398E-03  0.398E-03
  -4.770  0.387E-03  0.387E-03
  -4.760  0.405E-03  0.405E-03
  -4.750  0.453E-03  0.453E-03
  -4.740  0.534E-03  0.534E-03
  -4.730  0.649E-03  0.649E-03
  -4.720  0.803E-03  0.803E-03
  -4.710  0.999E-03  0.999E-03
  -4.700  0.124E-02  0.124E-02
  -4.690  0.154E-02  0.154E-02
  -4.680  0.190E-02  0.190E-02
  -4.670  0.231E-02  0.231E-02
  -4.660  0.280E-02  0.280E-02
  -4.650  0.335E-02  0.335E-02
  -4.640  0.397E-02  0.397E-02
  -4.630  0.465E-02  0.465E-02
  -4.620  0.540E-02  0.540E-02
  -4.610  0.621E-02  0.621E-02
  -4.600  0.706E-02  0.706E-02
  -4.590  0.794E-02  0.794E-02
  -4.580  0.884E-02  0.884E-02
  -4.570  0.973E-02  0.973E-02
  -4.560  0.106E-01  0.106E-01
  -4.550  0.114E-01  0.114E-01
  -4.540  0.122E-01  0.122E-01
  -4.530  0.129E-01  0.129E-01
  -4.520  0.134E-01  0.134E-01
  -4.510  0.139E-01  0.139E-01
  -4.500  0.142E-01  0.142E-01
  -4.490  0.143E-01  0.143E-01
  -4.480  0.143E-01  0.143E-01
  -4.470  0.142E-01  0.142E-01
  -4.460  0.139E-01  0.139E-01
  -4.450  0.134E-01  0.134E-01
  -4.440  0.129E-01  0.129E-01
  -4.430  0.122E-01  0.122E-01
  -4.420  0.114E-01  0.114E-01
  -4.410  0.106E-01  0.106E-01
  -4.400  0.973E-02  0.973E-02
  -4.390  0.884E-02  0.884E-02
  -4.380  0.796E-02  0.796E-02
  -4.370  0.708E-02  0.708E-02
  -4.360  0.625E-02  0.625E-02
  -4.350  0.546E-02  0.546E-02
  -4.340  0.473E-02  0.473E-02
  -4.330  0.408E-02  0.408E-02
  -4.320  0.350E-02  0.350E-02
  -4.310  0.300E-02  0.300E-02
  -4.300  0.258E-02  0.258E-02
  -4.290  0.225E-02  0.225E-02
  -4.280  0.200E-02  0.200E-02
  -4.270  0.184E-02  0.184E-02
  -4.260  0.177E-02  0.177E-02
  -4.250  0.178E-02  0.178E-02
  -4.240  0.189E-02  0.189E-02
  -4.230  0.208E-02  0.208E-02
  -4.220  0.237E-02  0.237E-02
  -4.210  0.276E-02  0.276E-02
  -4.200  0.324E-02  0.324E-02
  -4.190  0.383E-02  0.383E-02
  -4.180  0.452E-02  0.452E-02
  -4.170  0.532E-02  0.532E-02
  -4.160  0.622E-02  0.622E-02
  -4.150  0.721E-02  0.721E-02
  -4.140  0.830E-02  0.830E-02
  -4.130  0.947E-02  0.947E-02
  -4.120  0.107E-01  0.107E-01
  -4.110  0.120E-01  0.120E-01
  -4.100  0.133E-01  0.133E-01
  -4.090  0.146E-01  0.146E-01
  -4.080  0.159E-01  0.159E-01
  -4.070  0.171E-01  0.171E-01
  -4.060  0.183E-01  0.183E-01
  -4.050  0.194E-01  0.194E-01
  -4.040  0.203E-01  0.203E-01
  -4.030  0.211E-01  0.211E-01
  -4.020  0.217E-01  0.217E-01
  -4.010  0.222E-01  0.222E-01
  -4.000  0.224E-01  0.224E-01
  -3.990  0.225E-01  0.225E-01
  -3.980  0.224E-01  0.224E-01
  -3.970  0.221E-01  0.221E-01
  -3.960  0.217E-01  0.217E-01
  -3.950  0.212E-01  0.212E-01
  -3.940  0.205E-01  0.205E-01
  -3.930  0.198E-01  0.198E-01
  -3.920  0.190E-01  0.190E-01
  -3.910  0.182E-01  0.182E-01
  -3.900  0.174E-01  0.174E-01
  -3.890  0.166E-01  0.166E-01
  -3.880  0.158E-01  0.158E-01
  -3.870  0.151E-01  0.151E-01
  -3.860  0.145E-01  0.145E-01
  -3.850  0.140E-01  0.140E-01
  -3.840  0.136E-01  0.136E-01
  -3.830  0.132E-01  0.132E-01
  -3.820  0.130E-01  0.130E-01
  -3.810  0.129E-01  0.129E-01
  -3.800  0.130E-01  0.130E-01
  -3.790  0.131E-01  0.131E-01
  -3.780  0.134E-01  0.134E-01
  -3.770  0.137E-01  0.137E-01
  -3.760  0.142E-01  0.142E-01
  -3.750  0.148E-01  0.148E-01
  -3.740  0.155E-01  0.155E-01
  -3.730  0.163E-01  0.163E-01
  -3.720  0.172E-01  0.172E-01
  -3.710  0.181E-01  0.181E-01
  -3.700  0.191E-01  0.191E-01
  -3.690  0.201E-01  0.201E-01
  -3.680  0.210E-01  0.210E-01
  -3.670  0.220E-01  0.220E-01
  -3.660  0.228E-01  0.228E-01
  -3.650  0.236E-01  0.236E-01
  -3.640  0.243E-01  0.243E-01
  -3.630  0.248E-01  0.248E-01
  -3.620  0.252E-01  0.252E-01
  -3.610  0.255E-01  0.255E-01
  -3.600  0.256E-01  0.256E-01
  -3.590  0.255E-01  0.255E-01
  -3.580  0.254E-01  0.254E-01
  -3.570  0.251E-01  0.251E-01
  -3.560  0.248E-01  0.248E-01
  -3.550  0.244E-01  0.244E-01
  -3.540  0.240E-01  0.240E-01
  -3.530  0.235E-01  0.235E-01
  -3.520  0.231E-01  0.231E-01
  -3.510  0.228E-01  0.228E-01
  -3.500  0.225E-01  0.225E-01
  -3.490  0.223E-01  0.223E-01
  -3.480  0.223E-01  0.223E-01
  -3.470  0.223E-01  0.223E-01
  -3.460  0.225E-01  0.225E-01
  -3.450  0.228E-01  0.228E-01
  -3.440  0.232E-01  0.232E-01
  -3.430  0.237E-01  0.237E-01
  -3.420  0.244E-01  0.244E-01
  -3.410  0.251E-01  0.251E-01
  -3.400  0.260E-01  0.260E-01
  -3.390  0.269E-01  0.269E-01
  -3.380  0.278E-01  0.278E-01
  -3.370  0.288E-01  0.288E-01
  -3.360  0.298E-01  0.298E-01
  -3.350  0.308E-01  0.308E-01
  -3.340  0.318E-01  0.318E-01
  -3.330  0.327E-01  0.327E-01
  -3.320  0.336E-01  0.336E-01
  -3.310  0.345E-01  0.345E-01
  -3.300  0.353E-01  0.353E-01
  -3.290  0.361E-01  0.361E-01
  -3.280  0.368E-01  0.368E-01
  -3.270  0.376E-01  0.376E-01
  -3.260  0.383E-01  0.383E-01
  -3.250  0.390E-01  0.390E-01
  -3.240  0.397E-01  0.397E-01
  -3.230  0.405E-01  0.405E-01
  -3.220  0.413E-01  0.413E-01
  -3.210  0.421E-01  0.421E-01
  -3.200  0.430E-01  0.430E-01
  -3.190  0.440E-01  0.440E-01
  -3.180  0.450E-01  0.450E-01
  -3.170  0.460E-01  0.460E-01
  -3.160  0.470E-01  0.470E-01
  -3.150  0.480E-01  0.480E-01
  -3.140  0.490E-01  0.490E-01
  -3.130  0.498E-01  0.498E-01
  -3.120  0.506E-01  0.506E-01
  -3.110  0.511E-01  0.511E-01
  -3.100  0.515E-01  0.515E-01
  -3.090  0.516E-01  0.516E-01
  -3.080  0.515E-01  0.515E-01
  -3.070  0.512E-01  0.512E-01
  -3.060  0.505E-01  0.505E-01
  -3.050  0.495E-01  0.495E-01
  -3.040  0.483E-01  0.483E-01
  -3.030  0.468E-01  0.468E-01
  -3.020  0.450E-01  0.450E-01
  -3.010  0.430E-01  0.430E-01
  -3.000  0.409E-01  0.409E-01
  -2.990  0.385E-01  0.385E-01
  -2.980  0.361E-01  0.361E-01
  -2.970  0.336E-01  0.336E-01
  -2.960  0.310E-01  0.310E-01
  -2.950  0.285E-01  0.285E-01
  -2.940  0.260E-01  0.260E-01
  -2.930  0.237E-01  0.237E-01
  -2.920  0.214E-01  0.214E-01
  -2.910  0.193E-01  0.193E-01
  -2.900  0.173E-01  0.173E-01
  -2.890  0.156E-01  0.156E-01
  -2.880  0.140E-01  0.140E-01
  -2.870  0.126E-01  0.126E-01
  -2.860  0.115E-01  0.115E-01
  -2.850  0.105E-01  0.105E-01
  -2.840  0.968E-02  0.968E-02
  -2.830  0.905E-02  0.905E-02
  -2.820  0.858E-02  0.858E-02
  -2.810  0.824E-02  0.824E-02
  -2.800  0.803E-02  0.803E-02
  -2.790  0.792E-02  0.792E-02
  -2.780  0.789E-02  0.789E-02
  -2.770  0.792E-02  0.792E-02
  -2.760  0.799E-02  0.799E-02
  -2.750  0.809E-02  0.809E-02
  -2.740  0.819E-02  0.819E-02
  -2.730  0.827E-02  0.827E-02
  -2.720  0.834E-02  0.834E-02
  -2.710  0.836E-02  0.836E-02
  -2.700  0.835E-02  0.835E-02
  -2.690  0.828E-02  0.828E-02
  -2.680  0.817E-02  0.817E-02
  -2.670  0.800E-02  0.800E-02
  -2.660  0.780E-02  0.780E-02
  -2.650  0.755E-02  0.755E-02
  -2.640  0.728E-02  0.728E-02
  -2.630  0.699E-02  0.699E-02
  -2.620  0.671E-02  0.671E-02
  -2.610  0.643E-02  0.643E-02
  -2.600  0.618E-02  0.618E-02
  -2.590  0.597E-02  0.597E-02
  -2.580  0.581E-02  0.581E-02
  -2.570  0.572E-02  0.572E-02
  -2.560  0.569E-02  0.569E-02
  -2.550  0.575E-02  0.575E-02
  -2.540  0.589E-02  0.589E-02
  -2.530  0.610E-02  0.610E-02
  -2.520  0.640E-02  0.640E-02
  -2.510  0.677E-02  0.677E-02
  -2.500  0.720E-02  0.720E-02
  -2.490  0.769E-02  0.769E-02
  -2.480  0.821E-02  0.821E-02
  -2.470  0.876E-02  0.876E-02
  -2.460  0.931E-02  0.931E-02
  -2.450  0.985E-02  0.985E-02
  -2.440  0.104E-01  0.104E-01
  -2.430  0.108E-01  0.108E-01
  -2.420  0.112E-01  0.112E-01
  -2.410  0.116E-01  0.116E-01
  -2.400  0.118E-01  0.118E-01
  -2.390  0.120E-01  0.120E-01
  -2.380  0.121E-01  0.121E-01
  -2.370  0.120E-01  0.120E-01
  -2.360  0.119E-01  0.119E-01
  -2.350  0.117E-01  0.117E-01
  -2.340  0.115E-01  0.115E-01
  -2.330  0.112E-01  0.112E-01
  -2.320  0.108E-01  0.108E-01
  -2.310  0.104E-01  0.104E-01
  -2.300  0.100E-01  0.100E-01
  -2.290  0.964E-02  0.964E-02
  -2.280  0.929E-02  0.929E-02
  -2.270  0.899E-02  0.899E-02
  -2.260  0.876E-02  0.876E-02
  -2.250  0.860E-02  0.860E-02
  -2.240  0.852E-02  0.852E-02
  -2.230  0.854E-02  0.854E-02
  -2.220  0.866E-02  0.866E-02
  -2.210  0.888E-02  0.888E-02
  -2.200  0.920E-02  0.920E-02
  -2.190  0.960E-02  0.960E-02
  -2.180  0.101E-01  0.101E-01
  -2.170  0.106E-01  0.106E-01
  -2.160  0.112E-01  0.112E-01
  -2.150  0.119E-01  0.119E-01
  -2.140  0.125E-01  0.125E-01
  -2.130  0.131E-01  0.131E-01
  -2.120  0.137E-01  0.137E-01
  -2.110  0.142E-01  0.142E-01
  -2.100  0.146E-01  0.146E-01
  -2.090  0.149E-01  0.149E-01
  -2.080  0.150E-01  0.150E-01
  -2.070  0.151E-01  0.151E-01
  -2.060  0.150E-01  0.150E-01
  -2.050  0.148E-01  0.148E-01
  -2.040  0.144E-01  0.144E-01
  -2.030  0.140E-01  0.140E-01
  -2.020  0.134E-01  0.134E-01
  -2.010  0.128E-01  0.128E-01
  -2.000  0.121E-01  0.121E-01
  -1.990  0.114E-01  0.114E-01
  -1.980  0.108E-01  0.108E-01
  -1.970  0.101E-01  0.101E-01
  -1.960  0.950E-02  0.950E-02
  -1.950  0.899E-02  0.899E-02
  -1.940  0.859E-02  0.859E-02
  -1.930  0.831E-02  0.831E-02
  -1.920  0.818E-02  0.818E-02
  -1.910  0.819E-02  0.819E-02
  -1.900  0.836E-02  0.836E-02
  -1.890  0.868E-02  0.868E-02
  -1.880  0.914E-02  0.914E-02
  -1.870  0.974E-02  0.974E-02
  -1.860  0.105E-01  0.105E-01
  -1.850  0.113E-01  0.113E-01
  -1.840  0.122E-01  0.122E-01
  -1.830  0.131E-01  0.131E-01
  -1.820  0.141E-01  0.141E-01
  -1.810  0.150E-01  0.150E-01
  -1.800  0.159E-01  0.159E-01
  -1.790  0.168E-01  0.168E-01
  -1.780  0.175E-01  0.175E-01
  -1.770  0.182E-01  0.182E-01
  -1.760  0.187E-01  0.187E-01
  -1.750  0.191E-01  0.191E-01
  -1.740  0.194E-01  0.194E-01
  -1.730  0.195E-01  0.195E-01
  -1.720  0.195E-01  0.195E-01
  -1.710  0.193E-01  0.193E-01
  -1.700  0.190E-01  0.190E-01
  -1.690  0.187E-01  0.187E-01
  -1.680  0.183E-01  0.183E-01
  -1.670  0.178E-01  0.178E-01
  -1.660  0.173E-01  0.173E-01
  -1.650  0.168E-01  0.168E-01
  -1.640  0.163E-01  0.163E-01
  -1.630  0.159E-01  0.159E-01
  -1.620  0.156E-01  0.156E-01
  -1.610  0.153E-01  0.153E-01
  -1.600  0.152E-01  0.152E-01
  -1.590  0.152E-01  0.152E-01
  -1.580  0.152E-01  0.152E-01
  -1.570  0.155E-01  0.155E-01
  -1.560  0.158E-01  0.158E-01
  -1.550  0.162E-01  0.162E-01
  -1.540  0.167E-01  0.167E-01
  -1.530  0.173E-01  0.173E-01
  -1.520  0.179E-01  0.179E-01
  -1.510  0.186E-01  0.186E-01
  -1.500  0.192E-01  0.192E-01
  -1.490  0.198E-01  0.198E-01
  -1.480  0.204E-01  0.204E-01
  -1.470  0.208E-01  0.208E-01
  -1.460  0.211E-01  0.211E-01
  -1.450  0.213E-01  0.213E-01
  -1.440  0.213E-01  0.213E-01
  -1.430  0.212E-01  0.212E-01
  -1.420  0.209E-01  0.209E-01
  -1.410  0.204E-01  0.204E-01
  -1.400  0.199E-01  0.199E-01
  -1.390  0.192E-01  0.192E-01
  -1.380  0.184E-01  0.184E-01
  -1.370  0.176E-01  0.176E-01
  -1.360  0.167E-01  0.167E-01
  -1.350  0.159E-01  0.159E-01
  -1.340  0.152E-01  0.152E-01
  -1.330  0.146E-01  0.146E-01
  -1.320  0.141E-01  0.141E-01
  -1.310  0.137E-01  0.137E-01
  -1.300  0.136E-01  0.136E-01
  -1.290  0.137E-01  0.137E-01
  -1.280  0.139E-01  0.139E-01
  -1.270  0.144E-01  0.144E-01
  -1.260  0.151E-01  0.151E-01
  -1.250  0.159E-01  0.159E-01
  -1.240  0.169E-01  0.169E-01
  -1.230  0.180E-01  0.180E-01
  -1.220  0.192E-01  0.192E-01
  -1.210  0.204E-01  0.204E-01
  -1.200  0.216E-01  0.216E-01
  -1.190  0.228E-01  0.228E-01
  -1.180  0.239E-01  0.239E-01
  -1.170  0.248E-01  0.248E-01
  -1.160  0.256E-01  0.256E-01
  -1.150  0.262E-01  0.262E-01
  -1.140  0.266E-01  0.266E-01
  -1.130  0.268E-01  0.268E-01
  -1.120  0.268E-01  0.268E-01
  -1.110  0.266E-01  0.266E-01
  -1.100  0.263E-01  0.263E-01
  -1.090  0.258E-01  0.258E-01
  -1.080  0.252E-01  0.252E-01
  -1.070  0.246E-01  0.246E-01
  -1.060  0.240E-01  0.240E-01
  -1.050  0.234E-01  0.234E-01
  -1.040  0.229E-01  0.229E-01
  -1.030  0.225E-01  0.225E-01
  -1.020  0.223E-01  0.223E-01
  -1.010  0.222E-01  0.222E-01
  -1.000  0.224E-01  0.224E-01
  -0.990  0.227E-01  0.227E-01
  -0.980  0.233E-01  0.233E-01
  -0.970  0.240E-01  0.240E-01
  -0.960  0.249E-01  0.249E-01
  -0.950  0.259E-01  0.259E-01
  -0.940  0.270E-01  0.270E-01
  -0.930  0.282E-01  0.282E-01
  -0.920  0.294E-01  0.294E-01
  -0.910  0.305E-01  0.305E-01
  -0.900  0.315E-01  0.315E-01
  -0.890  0.324E-01  0.324E-01
  -0.880  0.332E-01  0.332E-01
  -0.870  0.338E-01  0.338E-01
  -0.860  0.342E-01  0.342E-01
  -0.850  0.345E-01  0.345E-01
  -0.840  0.345E-01  0.345E-01
  -0.830  0.343E-01  0.343E-01
  -0.820  0.340E-01  0.340E-01
  -0.810  0.335E-01  0.335E-01
  -0.800  0.329E-01  0.329E-01
  -0.790  0.322E-01  0.322E-01
  -0.780  0.315E-01  0.315E-01
  -0.770  0.307E-01  0.307E-01
  -0.760  0.299E-01  0.299E-01
  -0.750  0.291E-01  0.291E-01
  -0.740  0.283E-01  0.283E-01
  -0.730  0.276E-01  0.276E-01
  -0.720  0.269E-01  0.269E-01
  -0.710  0.263E-01  0.263E-01
  -0.700  0.258E-01  0.258E-01
  -0.690  0.253E-01  0.253E-01
  -0.680  0.248E-01  0.248E-01
  -0.670  0.244E-01  0.244E-01
  -0.660  0.241E-01  0.241E-01
  -0.650  0.238E-01  0.238E-01
  -0.640  0.236E-01  0.236E-01
  -0.630  0.235E-01  0.235E-01
  -0.620  0.234E-01  0.234E-01
  -0.610  0.233E-01  0.233E-01
  -0.600  0.234E-01  0.234E-01
  -0.590  0.235E-01  0.235E-01
  -0.580  0.236E-01  0.236E-01
  -0.570  0.239E-01  0.239E-01
  -0.560  0.242E-01  0.242E-01
  -0.550  0.246E-01  0.246E-01
  -0.540  0.250E-01  0.250E-01
  -0.530  0.255E-01  0.255E-01
  -0.520  0.260E-01  0.260E-01
  -0.510  0.267E-01  0.267E-01
  -0.500  0.273E-01  0.273E-01
  -0.490  0.281E-01  0.281E-01
  -0.480  0.289E-01  0.289E-01
  -0.470  0.298E-01  0.298E-01
  -0.460  0.307E-01  0.307E-01
  -0.450  0.317E-01  0.317E-01
  -0.440  0.328E-01  0.328E-01
  -0.430  0.339E-01  0.339E-01
  -0.420  0.351E-01  0.351E-01
  -0.410  0.363E-01  0.363E-01
  -0.400  0.375E-01  0.375E-01
  -0.390  0.388E-01  0.388E-01
  -0.380  0.400E-01  0.400E-01
  -0.370  0.411E-01  0.411E-01
  -0.360  0.422E-01  0.422E-01
  -0.350  0.432E-01  0.432E-01
  -0.340  0.441E-01  0.441E-01
  -0.330  0.449E-01  0.449E-01
  -0.320  0.456E-01  0.456E-01
  -0.310  0.462E-01  0.462E-01
  -0.300  0.467E-01  0.467E-01
  -0.290  0.470E-01  0.470E-01
  -0.280  0.474E-01  0.474E-01
  -0.270  0.477E-01  0.477E-01
  -0.260  0.479E-01  0.479E-01
  -0.250  0.482E-01  0.482E-01
  -0.240  0.484E-01  0.484E-01
  -0.230  0.487E-01  0.487E-01
  -0.220  0.490E-01  0.490E-01
  -0.210  0.494E-01  0.494E-01
  -0.200  0.498E-01  0.498E-01
  -0.190  0.502E-01  0.502E-01
  -0.180  0.506E-01  0.506E-01
  -0.170  0.510E-01  0.510E-01
  -0.160  0.515E-01  0.515E-01
  -0.150  0.519E-01  0.519E-01
  -0.140  0.523E-01  0.523E-01
  -0.130  0.526E-01  0.526E-01
  -0.120  0.529E-01  0.529E-01
  -0.110  0.533E-01  0.533E-01
  -0.100  0.536E-01  0.536E-01
  -0.090  0.539E-01  0.539E-01
  -0.080  0.542E-01  0.542E-01
  -0.070  0.546E-01  0.546E-01
  -0.060  0.550E-01  0.550E-01
  -0.050  0.555E-01  0.555E-01
  -0.040  0.561E-01  0.561E-01
  -0.030  0.569E-01  0.569E-01
  -0.020  0.577E-01  0.577E-01
  -0.010  0.586E-01  0.586E-01
   0.000  0.596E-01  0.596E-01
   0.010  0.607E-01  0.607E-01
   0.020  0.618E-01  0.618E-01
   0.030  0.630E-01  0.630E-01
   0.040  0.643E-01  0.643E-01
   0.050  0.656E-01  0.656E-01
   0.060  0.670E-01  0.670E-01
   0.070  0.684E-01  0.684E-01
   0.080  0.698E-01  0.698E-01
   0.090  0.713E-01  0.713E-01
   0.100  0.728E-01  0.728E-01
   0.110  0.744E-01  0.744E-01
   0.120  0.760E-01  0.760E-01
   0.130  0.778E-01  0.778E-01
   0.140  0.796E-01  0.796E-01
   0.150  0.816E-01  0.816E-01
   0.160  0.836E-01  0.836E-01
   0.170  0.858E-01  0.858E-01
   0.180  0.881E-01  0.881E-01
   0.190  0.905E-01  0.905E-01
   0.200  0.930E-01  0.930E-01
   0.210  0.957E-01  0.957E-01
   0.220  0.985E-01  0.985E-01
   0.230  0.101E+00  0.101E+00
   0.240  0.104E+00  0.104E+00
   0.250  0.108E+00  0.108E+00
   0.260  0.111E+00  0.111E+00
   0.270  0.115E+00  0.115E+00
   0.280  0.118E+00  0.118E+00
   0.290  0.122E+00  0.122E+00
   0.300  0.126E+00  0.126E+00
   0.310  0.130E+00  0.130E+00
   0.320  0.135E+00  0.135E+00
   0.330  0.139E+00  0.139E+00
   0.340  0.144E+00  0.144E+00
   0.350  0.149E+00  0.149E+00
   0.360  0.154E+00  0.154E+00
   0.370  0.160E+00  0.160E+00
   0.380  0.166E+00  0.166E+00
   0.390  0.173E+00  0.173E+00
   0.400  0.180E+00  0.180E+00
   0.410  0.187E+00  0.187E+00
   0.420  0.195E+00  0.195E+00
   0.430  0.204E+00  0.204E+00
   0.440  0.213E+00  0.213E+00
   0.450  0.223E+00  0.223E+00
   0.460  0.234E+00  0.234E+00
   0.470  0.245E+00  0.245E+00
   0.480  0.258E+00  0.258E+00
   0.490  0.271E+00  0.271E+00
   0.500  0.285E+00  0.285E+00
   0.510  0.300E+00  0.300E+00
   0.520  0.315E+00  0.315E+00
   0.530  0.331E+00  0.331E+00
   0.540  0.346E+00  0.346E+00
   0.550  0.362E+00  0.362E+00
   0.560  0.377E+00  0.377E+00
   0.570  0.391E+00  0.391E+00
   0.580  0.405E+00  0.405E+00
   0.590  0.416E+00  0.416E+00
   0.600  0.426E+00  0.426E+00
   0.610  0.434E+00  0.434E+00
   0.620  0.439E+00  0.439E+00
   0.630  0.441E+00  0.441E+00
   0.640  0.440E+00  0.440E+00
   0.650  0.436E+00  0.436E+00
   0.660  0.429E+00  0.429E+00
   0.670  0.419E+00  0.419E+00
   0.680  0.406E+00  0.406E+00
   0.690  0.390E+00  0.390E+00
   0.700  0.371E+00  0.371E+00
   0.710  0.351E+00  0.351E+00
   0.720  0.328E+00  0.328E+00
   0.730  0.305E+00  0.305E+00
   0.740  0.280E+00  0.280E+00
   0.750  0.255E+00  0.255E+00
   0.760  0.231E+00  0.231E+00
   0.770  0.207E+00  0.207E+00
   0.780  0.183E+00  0.183E+00
   0.790  0.161E+00  0.161E+00
   0.800  0.141E+00  0.141E+00
   0.810  0.122E+00  0.122E+00
   0.820  0.104E+00  0.104E+00
   0.830  0.886E-01  0.886E-01
   0.840  0.748E-01  0.748E-01
   0.850  0.628E-01  0.628E-01
   0.860  0.524E-01  0.524E-01
   0.870  0.436E-01  0.436E-01
   0.880  0.361E-01  0.361E-01
   0.890  0.299E-01  0.299E-01
   0.900  0.249E-01  0.249E-01
   0.910  0.208E-01  0.208E-01
   0.920  0.175E-01  0.175E-01
   0.930  0.149E-01  0.149E-01
   0.940  0.129E-01  0.129E-01
   0.950  0.113E-01  0.113E-01
   0.960  0.101E-01  0.101E-01
   0.970  0.914E-02  0.914E-02
   0.980  0.839E-02  0.839E-02
   0.990  0.778E-02  0.778E-02
   1.000  0.727E-02  0.727E-02
   1.010  0.683E-02  0.683E-02
   1.020  0.642E-02  0.642E-02
   1.030  0.604E-02  0.604E-02
   1.040  0.567E-02  0.567E-02
   1.050  0.530E-02  0.530E-02
   1.060  0.493E-02  0.493E-02
   1.070  0.457E-02  0.457E-02
   1.080  0.421E-02  0.421E-02
   1.090  0.386E-02  0.386E-02
   1.100  0.352E-02  0.352E-02
   1.110  0.320E-02  0.320E-02
   1.120  0.290E-02  0.290E-02
   1.130  0.263E-02  0.263E-02
   1.140  0.238E-02  0.238E-02
   1.150  0.217E-02  0.217E-02
   1.160  0.199E-02  0.199E-02
   1.170  0.184E-02  0.184E-02
   1.180  0.174E-02  0.174E-02
   1.190  0.166E-02  0.166E-02
   1.200  0.162E-02  0.162E-02
   1.210  0.162E-02  0.162E-02
   1.220  0.165E-02  0.165E-02
   1.230  0.171E-02  0.171E-02
   1.240  0.180E-02  0.180E-02
   1.250  0.192E-02  0.192E-02
   1.260  0.207E-02  0.207E-02
   1.270  0.224E-02  0.224E-02
   1.280  0.243E-02  0.243E-02
   1.290  0.264E-02  0.264E-02
   1.300  0.285E-02  0.285E-02
   1.310  0.307E-02  0.307E-02
   1.320  0.329E-02  0.329E-02
   1.330  0.351E-02  0.351E-02
   1.340  0.371E-02  0.371E-02
   1.350  0.390E-02  0.390E-02
   1.360  0.406E-02  0.406E-02
   1.370  0.420E-02  0.420E-02
   1.380  0.432E-02  0.432E-02
   1.390  0.440E-02  0.440E-02
   1.400  0.445E-02  0.445E-02
   1.410  0.448E-02  0.448E-02
   1.420  0.447E-02  0.447E-02
   1.430  0.444E-02  0.444E-02
   1.440  0.438E-02  0.438E-02
   1.450  0.431E-02  0.431E-02
   1.460  0.422E-02  0.422E-02
   1.470  0.412E-02  0.412E-02
   1.480  0.402E-02  0.402E-02
   1.490  0.392E-02  0.392E-02
   1.500  0.382E-02  0.382E-02
   1.510  0.373E-02  0.373E-02
   1.520  0.365E-02  0.365E-02
   1.530  0.359E-02  0.359E-02
   1.540  0.354E-02  0.354E-02
   1.550  0.351E-02  0.351E-02
   1.560  0.350E-02  0.350E-02
   1.570  0.350E-02  0.350E-02
   1.580  0.352E-02  0.352E-02
   1.590  0.356E-02  0.356E-02
   1.600  0.361E-02  0.361E-02
   1.610  0.367E-02  0.367E-02
   1.620  0.374E-02  0.374E-02
   1.630  0.382E-02  0.382E-02
   1.640  0.390E-02  0.390E-02
   1.650  0.399E-02  0.399E-02
   1.660  0.409E-02  0.409E-02
   1.670  0.418E-02  0.418E-02
   1.680  0.429E-02  0.429E-02
   1.690  0.440E-02  0.440E-02
   1.700  0.453E-02  0.453E-02
   1.710  0.468E-02  0.468E-02
   1.720  0.486E-02  0.486E-02
   1.730  0.508E-02  0.508E-02
   1.740  0.537E-02  0.537E-02
   1.750  0.574E-02  0.574E-02
   1.760  0.623E-02  0.623E-02
   1.770  0.687E-02  0.687E-02
   1.780  0.771E-02  0.771E-02
   1.790  0.881E-02  0.881E-02
   1.800  0.102E-01  0.102E-01
   1.810  0.120E-01  0.120E-01
   1.820  0.143E-01  0.143E-01
   1.830  0.172E-01  0.172E-01
   1.840  0.208E-01  0.208E-01
   1.850  0.252E-01  0.252E-01
   1.860  0.305E-01  0.305E-01
   1.870  0.369E-01  0.369E-01
   1.880  0.444E-01  0.444E-01
   1.890  0.532E-01  0.532E-01
   1.900  0.633E-01  0.633E-01
   1.910  0.749E-01  0.749E-01
   1.920  0.879E-01  0.879E-01
   1.930  0.102E+00  0.102E+00
   1.940  0.118E+00  0.118E+00
   1.950  0.135E+00  0.135E+00
   1.960  0.154E+00  0.154E+00
   1.970  0.173E+00  0.173E+00
   1.980  0.193E+00  0.193E+00
   1.990  0.214E+00  0.214E+00
   2.000  0.235E+00  0.235E+00
   2.010  0.255E+00  0.255E+00
   2.020  0.275E+00  0.275E+00
   2.030  0.294E+00  0.294E+00
   2.040  0.312E+00  0.312E+00
   2.050  0.328E+00  0.328E+00
   2.060  0.342E+00  0.342E+00
   2.070  0.354E+00  0.354E+00
   2.080  0.364E+00  0.364E+00
   2.090  0.371E+00  0.371E+00
   2.100  0.376E+00  0.376E+00
   2.110  0.378E+00  0.378E+00
   2.120  0.378E+00  0.378E+00
   2.130  0.376E+00  0.376E+00
   2.140  0.372E+00  0.372E+00
   2.150  0.366E+00  0.366E+00
   2.160  0.359E+00  0.359E+00
   2.170  0.351E+00  0.351E+00
   2.180  0.342E+00  0.342E+00
   2.190  0.332E+00  0.332E+00
   2.200  0.321E+00  0.321E+00
   2.210  0.311E+00  0.311E+00
   2.220  0.301E+00  0.301E+00
   2.230  0.291E+00  0.291E+00
   2.240  0.281E+00  0.281E+00
   2.250  0.271E+00  0.271E+00
   2.260  0.262E+00  0.262E+00
   2.270  0.254E+00  0.254E+00
   2.280  0.245E+00  0.245E+00
   2.290  0.238E+00  0.238E+00
   2.300  0.230E+00  0.230E+00
   2.310  0.223E+00  0.223E+00
   2.320  0.216E+00  0.216E+00
   2.330  0.210E+00  0.210E+00
   2.340  0.203E+00  0.203E+00
   2.350  0.196E+00  0.196E+00
   2.360  0.190E+00  0.190E+00
   2.370  0.183E+00  0.183E+00
   2.380  0.177E+00  0.177E+00
   2.390  0.170E+00  0.170E+00
   2.400  0.164E+00  0.164E+00
   2.410  0.157E+00  0.157E+00
   2.420  0.150E+00  0.150E+00
   2.430  0.143E+00  0.143E+00
   2.440  0.137E+00  0.137E+00
   2.450  0.130E+00  0.130E+00
   2.460  0.123E+00  0.123E+00
   2.470  0.117E+00  0.117E+00
   2.480  0.111E+00  0.111E+00
   2.490  0.105E+00  0.105E+00
   2.500  0.990E-01  0.990E-01
   2.510  0.936E-01  0.936E-01
   2.520  0.885E-01  0.885E-01
   2.530  0.837E-01  0.837E-01
   2.540  0.793E-01  0.793E-01
   2.550  0.752E-01  0.752E-01
   2.560  0.715E-01  0.715E-01
   2.570  0.681E-01  0.681E-01
   2.580  0.650E-01  0.650E-01
   2.590  0.623E-01  0.623E-01
   2.600  0.598E-01  0.598E-01
   2.610  0.576E-01  0.576E-01
   2.620  0.555E-01  0.555E-01
   2.630  0.537E-01  0.537E-01
   2.640  0.521E-01  0.521E-01
   2.650  0.505E-01  0.505E-01
   2.660  0.491E-01  0.491E-01
   2.670  0.478E-01  0.478E-01
   2.680  0.466E-01  0.466E-01
   2.690  0.454E-01  0.454E-01
   2.700  0.442E-01  0.442E-01
   2.710  0.431E-01  0.431E-01
   2.720  0.421E-01  0.421E-01
   2.730  0.411E-01  0.411E-01
   2.740  0.402E-01  0.402E-01
   2.750  0.393E-01  0.393E-01
   2.760  0.385E-01  0.385E-01
   2.770  0.377E-01  0.377E-01
   2.780  0.370E-01  0.370E-01
   2.790  0.363E-01  0.363E-01
   2.800  0.357E-01  0.357E-01
   2.810  0.350E-01  0.350E-01
   2.820  0.344E-01  0.344E-01
   2.830  0.337E-01  0.337E-01
   2.840  0.330E-01  0.330E-01
   2.850  0.324E-01  0.324E-01
   2.860  0.316E-01  0.316E-01
   2.870  0.309E-01  0.309E-01
   2.880  0.301E-01  0.301E-01
   2.890  0.293E-01  0.293E-01
   2.900  0.285E-01  0.285E-01
   2.910  0.277E-01  0.277E-01
   2.920  0.270E-01  0.270E-01
   2.930  0.264E-01  0.264E-01
   2.940  0.258E-01  0.258E-01
   2.950  0.252E-01  0.252E-01
   2.960  0.248E-01  0.248E-01
   2.970  0.245E-01  0.245E-01
   2.980  0.242E-01  0.242E-01
   2.990  0.240E-01  0.240E-01
   3.000  0.238E-01  0.238E-01
   3.010  0.237E-01  0.237E-01
   3.020  0.236E-01  0.236E-01
   3.030  0.235E-01  0.235E-01
   3.040  0.233E-01  0.233E-01
   3.050  0.231E-01  0.231E-01
   3.060  0.228E-01  0.228E-01
   3.070  0.224E-01  0.224E-01
   3.080  0.219E-01  0.219E-01
   3.090  0.214E-01  0.214E-01
   3.100  0.208E-01  0.208E-01
   3.110  0.201E-01  0.201E-01
   3.120  0.194E-01  0.194E-01
   3.130  0.188E-01  0.188E-01
   3.140  0.181E-01  0.181E-01
   3.150  0.175E-01  0.175E-01
   3.160  0.170E-01  0.170E-01
   3.170  0.166E-01  0.166E-01
   3.180  0.164E-01  0.164E-01
   3.190  0.162E-01  0.162E-01
   3.200  0.162E-01  0.162E-01
   3.210  0.163E-01  0.163E-01
   3.220  0.166E-01  0.166E-01
   3.230  0.170E-01  0.170E-01
   3.240  0.175E-01  0.175E-01
   3.250  0.180E-01  0.180E-01
   3.260  0.187E-01  0.187E-01
   3.270  0.194E-01  0.194E-01
   3.280  0.201E-01  0.201E-01
   3.290  0.208E-01  0.208E-01
   3.300  0.214E-01  0.214E-01
   3.310  0.221E-01  0.221E-01
   3.320  0.227E-01  0.227E-01
   3.330  0.233E-01  0.233E-01
   3.340  0.239E-01  0.239E-01
   3.350  0.244E-01  0.244E-01
   3.360  0.249E-01  0.249E-01
   3.370  0.253E-01  0.253E-01
   3.380  0.258E-01  0.258E-01
   3.390  0.262E-01  0.262E-01
   3.400  0.267E-01  0.267E-01
   3.410  0.272E-01  0.272E-01
   3.420  0.277E-01  0.277E-01
   3.430  0.283E-01  0.283E-01
   3.440  0.289E-01  0.289E-01
   3.450  0.295E-01  0.295E-01
   3.460  0.301E-01  0.301E-01
   3.470  0.307E-01  0.307E-01
   3.480  0.313E-01  0.313E-01
   3.490  0.318E-01  0.318E-01
   3.500  0.323E-01  0.323E-01
   3.510  0.326E-01  0.326E-01
   3.520  0.329E-01  0.329E-01
   3.530  0.330E-01  0.330E-01
   3.540  0.330E-01  0.330E-01
   3.550  0.328E-01  0.328E-01
   3.560  0.325E-01  0.325E-01
   3.570  0.319E-01  0.319E-01
   3.580  0.312E-01  0.312E-01
   3.590  0.303E-01  0.303E-01
   3.600  0.293E-01  0.293E-01
   3.610  0.281E-01  0.281E-01
   3.620  0.269E-01  0.269E-01
   3.630  0.256E-01  0.256E-01
   3.640  0.243E-01  0.243E-01
   3.650  0.230E-01  0.230E-01
   3.660  0.217E-01  0.217E-01
   3.670  0.205E-01  0.205E-01
   3.680  0.195E-01  0.195E-01
   3.690  0.186E-01  0.186E-01
   3.700  0.179E-01  0.179E-01
   3.710  0.173E-01  0.173E-01
   3.720  0.170E-01  0.170E-01
   3.730  0.168E-01  0.168E-01
   3.740  0.168E-01  0.168E-01
   3.750  0.171E-01  0.171E-01
   3.760  0.174E-01  0.174E-01
   3.770  0.179E-01  0.179E-01
   3.780  0.185E-01  0.185E-01
   3.790  0.191E-01  0.191E-01
   3.800  0.198E-01  0.198E-01
   3.810  0.205E-01  0.205E-01
   3.820  0.212E-01  0.212E-01
   3.830  0.218E-01  0.218E-01
   3.840  0.223E-01  0.223E-01
   3.850  0.227E-01  0.227E-01
   3.860  0.230E-01  0.230E-01
   3.870  0.231E-01  0.231E-01
   3.880  0.231E-01  0.231E-01
   3.890  0.229E-01  0.229E-01
   3.900  0.226E-01  0.226E-01
   3.910  0.222E-01  0.222E-01
   3.920  0.216E-01  0.216E-01
   3.930  0.208E-01  0.208E-01
   3.940  0.200E-01  0.200E-01
   3.950  0.191E-01  0.191E-01
   3.960  0.181E-01  0.181E-01
   3.970  0.170E-01  0.170E-01
   3.980  0.160E-01  0.160E-01
   3.990  0.149E-01  0.149E-01
   4.000  0.138E-01  0.138E-01
   4.010  0.127E-01  0.127E-01
   4.020  0.117E-01  0.117E-01
   4.030  0.107E-01  0.107E-01
   4.040  0.984E-02  0.984E-02
   4.050  0.906E-02  0.906E-02
   4.060  0.840E-02  0.840E-02
   4.070  0.786E-02  0.786E-02
   4.080  0.747E-02  0.747E-02
   4.090  0.723E-02  0.723E-02
   4.100  0.716E-02  0.716E-02
   4.110  0.725E-02  0.725E-02
   4.120  0.751E-02  0.751E-02
   4.130  0.794E-02  0.794E-02
   4.140  0.853E-02  0.853E-02
   4.150  0.928E-02  0.928E-02
   4.160  0.102E-01  0.102E-01
   4.170  0.112E-01  0.112E-01
   4.180  0.123E-01  0.123E-01
   4.190  0.135E-01  0.135E-01
   4.200  0.147E-01  0.147E-01
   4.210  0.159E-01  0.159E-01
   4.220  0.171E-01  0.171E-01
   4.230  0.183E-01  0.183E-01
   4.240  0.193E-01  0.193E-01
   4.250  0.202E-01  0.202E-01
   4.260  0.209E-01  0.209E-01
   4.270  0.215E-01  0.215E-01
   4.280  0.218E-01  0.218E-01
   4.290  0.219E-01  0.219E-01
   4.300  0.218E-01  0.218E-01
   4.310  0.214E-01  0.214E-01
   4.320  0.209E-01  0.209E-01
   4.330  0.201E-01  0.201E-01
   4.340  0.192E-01  0.192E-01
   4.350  0.181E-01  0.181E-01
   4.360  0.169E-01  0.169E-01
   4.370  0.157E-01  0.157E-01
   4.380  0.144E-01  0.144E-01
   4.390  0.131E-01  0.131E-01
   4.400  0.119E-01  0.119E-01
   4.410  0.107E-01  0.107E-01
   4.420  0.955E-02  0.955E-02
   4.430  0.852E-02  0.852E-02
   4.440  0.759E-02  0.759E-02
   4.450  0.679E-02  0.679E-02
   4.460  0.610E-02  0.610E-02
   4.470  0.554E-02  0.554E-02
   4.480  0.510E-02  0.510E-02
   4.490  0.477E-02  0.477E-02
   4.500  0.455E-02  0.455E-02
   4.510  0.443E-02  0.443E-02
   4.520  0.439E-02  0.439E-02
   4.530  0.444E-02  0.444E-02
   4.540  0.456E-02  0.456E-02
   4.550  0.475E-02  0.475E-02
   4.560  0.500E-02  0.500E-02
   4.570  0.530E-02  0.530E-02
   4.580  0.567E-02  0.567E-02
   4.590  0.608E-02  0.608E-02
   4.600  0.655E-02  0.655E-02
   4.610  0.708E-02  0.708E-02
   4.620  0.766E-02  0.766E-02
   4.630  0.829E-02  0.829E-02
   4.640  0.897E-02  0.897E-02
   4.650  0.971E-02  0.971E-02
   4.660  0.105E-01  0.105E-01
   4.670  0.113E-01  0.113E-01
   4.680  0.122E-01  0.122E-01
   4.690  0.130E-01  0.130E-01
   4.700  0.139E-01  0.139E-01
   4.710  0.148E-01  0.148E-01
   4.720  0.156E-01  0.156E-01
   4.730  0.164E-01  0.164E-01
   4.740  0.171E-01  0.171E-01
   4.750  0.177E-01  0.177E-01
   4.760  0.182E-01  0.182E-01
   4.770  0.186E-01  0.186E-01
   4.780  0.188E-01  0.188E-01
   4.790  0.189E-01  0.189E-01
   4.800  0.188E-01  0.188E-01
   4.810  0.186E-01  0.186E-01
   4.820  0.182E-01  0.182E-01
   4.830  0.176E-01  0.176E-01
   4.840  0.169E-01  0.169E-01
   4.850  0.161E-01  0.161E-01
   4.860  0.152E-01  0.152E-01
   4.870  0.142E-01  0.142E-01
   4.880  0.132E-01  0.132E-01
   4.890  0.121E-01  0.121E-01
   4.900  0.111E-01  0.111E-01
   4.910  0.100E-01  0.100E-01
   4.920  0.900E-02  0.900E-02
   4.930  0.803E-02  0.803E-02
   4.940  0.713E-02  0.713E-02
   4.950  0.631E-02  0.631E-02
   4.960  0.558E-02  0.558E-02
   4.970  0.493E-02  0.493E-02
   4.980  0.437E-02  0.437E-02
   4.990  0.390E-02  0.390E-02
   5.000  0.353E-02  0.353E-02
   5.010  0.323E-02  0.323E-02
