# E (eV)   ldos(E)   pdos(E)    pdos(E)    pdos(E)   
 -12.000  0.230E-01  0.146E-03  0.114E-01  0.114E-01
 -11.990  0.227E-01  0.157E-03  0.113E-01  0.113E-01
 -11.980  0.224E-01  0.167E-03  0.111E-01  0.111E-01
 -11.970  0.222E-01  0.175E-03  0.110E-01  0.110E-01
 -11.960  0.220E-01  0.182E-03  0.109E-01  0.109E-01
 -11.950  0.219E-01  0.187E-03  0.108E-01  0.108E-01
 -11.940  0.218E-01  0.191E-03  0.108E-01  0.108E-01
 -11.930  0.217E-01  0.192E-03  0.108E-01  0.108E-01
 -11.920  0.217E-01  0.192E-03  0.107E-01  0.107E-01
 -11.910  0.217E-01  0.189E-03  0.107E-01  0.107E-01
 -11.900  0.216E-01  0.185E-03  0.107E-01  0.107E-01
 -11.890  0.216E-01  0.179E-03  0.107E-01  0.107E-01
 -11.880  0.215E-01  0.171E-03  0.107E-01  0.107E-01
 -11.870  0.214E-01  0.162E-03  0.106E-01  0.106E-01
 -11.860  0.212E-01  0.151E-03  0.105E-01  0.105E-01
 -11.850  0.209E-01  0.141E-03  0.104E-01  0.104E-01
 -11.840  0.207E-01  0.129E-03  0.103E-01  0.103E-01
 -11.830  0.203E-01  0.118E-03  0.101E-01  0.101E-01
 -11.820  0.199E-01  0.107E-03  0.991E-02  0.991E-02
 -11.810  0.195E-01  0.967E-04  0.972E-02  0.972E-02
 -11.800  0.191E-01  0.871E-04  0.953E-02  0.953E-02
 -11.790  0.188E-01  0.786E-04  0.934E-02  0.934E-02
 -11.780  0.184E-01  0.713E-04  0.917E-02  0.917E-02
 -11.770  0.181E-01  0.655E-04  0.902E-02  0.902E-02
 -11.760  0.179E-01  0.612E-04  0.891E-02  0.891E-02
 -11.750  0.177E-01  0.586E-04  0.884E-02  0.884E-02
 -11.740  0.177E-01  0.576E-04  0.882E-02  0.882E-02
 -11.730  0.177E-01  0.582E-04  0.884E-02  0.884E-02
 -11.720  0.179E-01  0.605E-04  0.891E-02  0.891E-02
 -11.710  0.181E-01  0.644E-04  0.902E-02  0.902E-02
 -11.700  0.184E-01  0.698E-04  0.917E-02  0.917E-02
 -11.690  0.188E-01  0.764E-04  0.935E-02  0.935E-02
 -11.680  0.192E-01  0.842E-04  0.956E-02  0.956E-02
 -11.670  0.197E-01  0.930E-04  0.978E-02  0.978E-02
 -11.660  0.201E-01  0.102E-03  0.100E-01  0.100E-01
 -11.650  0.206E-01  0.112E-03  0.102E-01  0.102E-01
 -11.640  0.211E-01  0.122E-03  0.105E-01  0.105E-01
 -11.630  0.215E-01  0.132E-03  0.107E-01  0.107E-01
 -11.620  0.218E-01  0.142E-03  0.108E-01  0.108E-01
 -11.610  0.221E-01  0.150E-03  0.110E-01  0.110E-01
 -11.600  0.224E-01  0.158E-03  0.111E-01  0.111E-01
 -11.590  0.225E-01  0.164E-03  0.112E-01  0.112E-01
 -11.580  0.226E-01  0.169E-03  0.112E-01  0.112E-01
 -11.570  0.225E-01  0.172E-03  0.112E-01  0.112E-01
 -11.560  0.224E-01  0.173E-03  0.111E-01  0.111E-01
 -11.550  0.223E-01  0.173E-03  0.110E-01  0.110E-01
 -11.540  0.220E-01  0.171E-03  0.109E-01  0.109E-01
 -11.530  0.218E-01  0.167E-03  0.108E-01  0.108E-01
 -11.520  0.215E-01  0.161E-03  0.107E-01  0.107E-01
 -11.510  0.212E-01  0.154E-03  0.105E-01  0.105E-01
 -11.500  0.209E-01  0.146E-03  0.104E-01  0.104E-01
 -11.490  0.206E-01  0.137E-03  0.102E-01  0.102E-01
 -11.480  0.204E-01  0.127E-03  0.101E-01  0.101E-01
 -11.470  0.202E-01  0.117E-03  0.101E-01  0.101E-01
 -11.460  0.202E-01  0.107E-03  0.100E-01  0.100E-01
 -11.450  0.202E-01  0.976E-04  0.101E-01  0.101E-01
 -11.440  0.204E-01  0.885E-04  0.101E-01  0.101E-01
 -11.430  0.206E-01  0.802E-04  0.103E-01  0.103E-01
 -11.420  0.210E-01  0.730E-04  0.105E-01  0.105E-01
 -11.410  0.215E-01  0.670E-04  0.107E-01  0.107E-01
 -11.400  0.220E-01  0.624E-04  0.110E-01  0.110E-01
 -11.390  0.226E-01  0.594E-04  0.113E-01  0.113E-01
 -11.380  0.233E-01  0.580E-04  0.116E-01  0.116E-01
 -11.370  0.239E-01  0.582E-04  0.119E-01  0.119E-01
 -11.360  0.246E-01  0.603E-04  0.123E-01  0.123E-01
 -11.350  0.252E-01  0.641E-04  0.126E-01  0.126E-01
 -11.340  0.258E-01  0.698E-04  0.129E-01  0.129E-01
 -11.330  0.263E-01  0.772E-04  0.131E-01  0.131E-01
 -11.320  0.266E-01  0.864E-04  0.133E-01  0.133E-01
 -11.310  0.268E-01  0.973E-04  0.134E-01  0.134E-01
 -11.300  0.269E-01  0.110E-03  0.134E-01  0.134E-01
 -11.290  0.268E-01  0.124E-03  0.134E-01  0.134E-01
 -11.280  0.266E-01  0.140E-03  0.132E-01  0.132E-01
 -11.270  0.261E-01  0.157E-03  0.130E-01  0.130E-01
 -11.260  0.256E-01  0.176E-03  0.127E-01  0.127E-01
 -11.250  0.248E-01  0.197E-03  0.123E-01  0.123E-01
 -11.240  0.240E-01  0.219E-03  0.119E-01  0.119E-01
 -11.230  0.230E-01  0.242E-03  0.114E-01  0.114E-01
 -11.220  0.220E-01  0.266E-03  0.108E-01  0.108E-01
 -11.210  0.209E-01  0.292E-03  0.103E-01  0.103E-01
 -11.200  0.198E-01  0.320E-03  0.972E-02  0.972E-02
 -11.190  0.187E-01  0.348E-03  0.916E-02  0.916E-02
 -11.180  0.176E-01  0.378E-03  0.862E-02  0.862E-02
 -11.170  0.166E-01  0.408E-03  0.812E-02  0.812E-02
 -11.160  0.158E-01  0.440E-03  0.768E-02  0.768E-02
 -11.150  0.151E-01  0.472E-03  0.730E-02  0.730E-02
 -11.140  0.145E-01  0.505E-03  0.701E-02  0.701E-02
 -11.130  0.142E-01  0.538E-03  0.681E-02  0.681E-02
 -11.120  0.140E-01  0.571E-03  0.671E-02  0.671E-02
 -11.110  0.140E-01  0.603E-03  0.671E-02  0.671E-02
 -11.100  0.143E-01  0.635E-03  0.683E-02  0.683E-02
 -11.090  0.148E-01  0.665E-03  0.704E-02  0.704E-02
 -11.080  0.154E-01  0.694E-03  0.736E-02  0.736E-02
 -11.070  0.163E-01  0.722E-03  0.778E-02  0.778E-02
 -11.060  0.173E-01  0.747E-03  0.828E-02  0.828E-02
 -11.050  0.185E-01  0.771E-03  0.886E-02  0.886E-02
 -11.040  0.198E-01  0.792E-03  0.950E-02  0.950E-02
 -11.030  0.212E-01  0.812E-03  0.102E-01  0.102E-01
 -11.020  0.226E-01  0.829E-03  0.109E-01  0.109E-01
 -11.010  0.241E-01  0.844E-03  0.116E-01  0.116E-01
 -11.000  0.255E-01  0.858E-03  0.123E-01  0.123E-01
 -10.990  0.269E-01  0.869E-03  0.130E-01  0.130E-01
 -10.980  0.282E-01  0.879E-03  0.137E-01  0.137E-01
 -10.970  0.294E-01  0.888E-03  0.142E-01  0.142E-01
 -10.960  0.304E-01  0.896E-03  0.147E-01  0.147E-01
 -10.950  0.313E-01  0.902E-03  0.152E-01  0.152E-01
 -10.940  0.319E-01  0.907E-03  0.155E-01  0.155E-01
 -10.930  0.324E-01  0.912E-03  0.157E-01  0.157E-01
 -10.920  0.327E-01  0.916E-03  0.159E-01  0.159E-01
 -10.910  0.328E-01  0.919E-03  0.159E-01  0.159E-01
 -10.900  0.327E-01  0.921E-03  0.159E-01  0.159E-01
 -10.890  0.324E-01  0.924E-03  0.157E-01  0.157E-01
 -10.880  0.319E-01  0.927E-03  0.155E-01  0.155E-01
 -10.870  0.313E-01  0.931E-03  0.152E-01  0.152E-01
 -10.860  0.306E-01  0.937E-03  0.148E-01  0.148E-01
 -10.850  0.298E-01  0.945E-03  0.144E-01  0.144E-01
 -10.840  0.289E-01  0.956E-03  0.140E-01  0.140E-01
 -10.830  0.280E-01  0.971E-03  0.135E-01  0.135E-01
 -10.820  0.270E-01  0.992E-03  0.130E-01  0.130E-01
 -10.810  0.261E-01  0.102E-02  0.125E-01  0.125E-01
 -10.800  0.252E-01  0.105E-02  0.121E-01  0.121E-01
 -10.790  0.244E-01  0.109E-02  0.117E-01  0.117E-01
 -10.780  0.237E-01  0.114E-02  0.113E-01  0.113E-01
 -10.770  0.231E-01  0.119E-02  0.110E-01  0.110E-01
 -10.760  0.226E-01  0.125E-02  0.107E-01  0.107E-01
 -10.750  0.222E-01  0.131E-02  0.104E-01  0.104E-01
 -10.740  0.219E-01  0.139E-02  0.102E-01  0.102E-01
 -10.730  0.217E-01  0.146E-02  0.101E-01  0.101E-01
 -10.720  0.216E-01  0.153E-02  0.100E-01  0.100E-01
 -10.710  0.216E-01  0.161E-02  0.100E-01  0.100E-01
 -10.700  0.217E-01  0.168E-02  0.100E-01  0.100E-01
 -10.690  0.218E-01  0.175E-02  0.100E-01  0.100E-01
 -10.680  0.219E-01  0.181E-02  0.101E-01  0.101E-01
 -10.670  0.221E-01  0.186E-02  0.101E-01  0.101E-01
 -10.660  0.223E-01  0.191E-02  0.102E-01  0.102E-01
 -10.650  0.224E-01  0.194E-02  0.102E-01  0.102E-01
 -10.640  0.224E-01  0.197E-02  0.102E-01  0.102E-01
 -10.630  0.225E-01  0.198E-02  0.102E-01  0.102E-01
 -10.620  0.224E-01  0.198E-02  0.102E-01  0.102E-01
 -10.610  0.223E-01  0.197E-02  0.102E-01  0.102E-01
 -10.600  0.222E-01  0.195E-02  0.101E-01  0.101E-01
 -10.590  0.220E-01  0.192E-02  0.100E-01  0.100E-01
 -10.580  0.218E-01  0.189E-02  0.996E-02  0.996E-02
 -10.570  0.216E-01  0.185E-02  0.988E-02  0.988E-02
 -10.560  0.214E-01  0.181E-02  0.981E-02  0.981E-02
 -10.550  0.213E-01  0.177E-02  0.977E-02  0.977E-02
 -10.540  0.212E-01  0.173E-02  0.976E-02  0.976E-02
 -10.530  0.213E-01  0.169E-02  0.979E-02  0.979E-02
 -10.520  0.214E-01  0.166E-02  0.988E-02  0.988E-02
 -10.510  0.217E-01  0.164E-02  0.100E-01  0.100E-01
 -10.500  0.221E-01  0.163E-02  0.102E-01  0.102E-01
 -10.490  0.227E-01  0.162E-02  0.105E-01  0.105E-01
 -10.480  0.233E-01  0.162E-02  0.109E-01  0.109E-01
 -10.470  0.241E-01  0.164E-02  0.113E-01  0.113E-01
 -10.460  0.250E-01  0.166E-02  0.117E-01  0.117E-01
 -10.450  0.260E-01  0.169E-02  0.122E-01  0.122E-01
 -10.440  0.271E-01  0.173E-02  0.127E-01  0.127E-01
 -10.430  0.282E-01  0.177E-02  0.132E-01  0.132E-01
 -10.420  0.293E-01  0.181E-02  0.137E-01  0.137E-01
 -10.410  0.303E-01  0.185E-02  0.142E-01  0.142E-01
 -10.400  0.313E-01  0.189E-02  0.147E-01  0.147E-01
 -10.390  0.322E-01  0.192E-02  0.152E-01  0.152E-01
 -10.380  0.331E-01  0.194E-02  0.156E-01  0.156E-01
 -10.370  0.337E-01  0.195E-02  0.159E-01  0.159E-01
 -10.360  0.343E-01  0.195E-02  0.162E-01  0.162E-01
 -10.350  0.347E-01  0.194E-02  0.164E-01  0.164E-01
 -10.340  0.349E-01  0.191E-02  0.165E-01  0.165E-01
 -10.330  0.350E-01  0.187E-02  0.166E-01  0.166E-01
 -10.320  0.349E-01  0.181E-02  0.166E-01  0.166E-01
 -10.310  0.347E-01  0.174E-02  0.165E-01  0.165E-01
 -10.300  0.344E-01  0.166E-02  0.163E-01  0.163E-01
 -10.290  0.339E-01  0.158E-02  0.161E-01  0.161E-01
 -10.280  0.332E-01  0.149E-02  0.159E-01  0.159E-01
 -10.270  0.325E-01  0.140E-02  0.156E-01  0.156E-01
 -10.260  0.317E-01  0.130E-02  0.152E-01  0.152E-01
 -10.250  0.308E-01  0.122E-02  0.148E-01  0.148E-01
 -10.240  0.299E-01  0.114E-02  0.144E-01  0.144E-01
 -10.230  0.289E-01  0.106E-02  0.139E-01  0.139E-01
 -10.220  0.279E-01  0.101E-02  0.135E-01  0.135E-01
 -10.210  0.269E-01  0.959E-03  0.130E-01  0.130E-01
 -10.200  0.259E-01  0.929E-03  0.125E-01  0.125E-01
 -10.190  0.250E-01  0.916E-03  0.120E-01  0.120E-01
 -10.180  0.241E-01  0.921E-03  0.116E-01  0.116E-01
 -10.170  0.233E-01  0.943E-03  0.112E-01  0.112E-01
 -10.160  0.226E-01  0.983E-03  0.108E-01  0.108E-01
 -10.150  0.220E-01  0.104E-02  0.105E-01  0.105E-01
 -10.140  0.215E-01  0.111E-02  0.102E-01  0.102E-01
 -10.130  0.211E-01  0.120E-02  0.998E-02  0.998E-02
 -10.120  0.210E-01  0.129E-02  0.983E-02  0.983E-02
 -10.110  0.209E-01  0.140E-02  0.977E-02  0.977E-02
 -10.100  0.211E-01  0.151E-02  0.978E-02  0.978E-02
 -10.090  0.213E-01  0.162E-02  0.986E-02  0.986E-02
 -10.080  0.218E-01  0.173E-02  0.100E-01  0.100E-01
 -10.070  0.224E-01  0.184E-02  0.103E-01  0.103E-01
 -10.060  0.231E-01  0.194E-02  0.106E-01  0.106E-01
 -10.050  0.239E-01  0.202E-02  0.109E-01  0.109E-01
 -10.040  0.248E-01  0.209E-02  0.114E-01  0.114E-01
 -10.030  0.258E-01  0.214E-02  0.118E-01  0.118E-01
 -10.020  0.269E-01  0.218E-02  0.123E-01  0.123E-01
 -10.010  0.280E-01  0.219E-02  0.129E-01  0.129E-01
 -10.000  0.291E-01  0.218E-02  0.134E-01  0.134E-01
  -9.990  0.302E-01  0.215E-02  0.140E-01  0.140E-01
  -9.980  0.313E-01  0.210E-02  0.146E-01  0.146E-01
  -9.970  0.324E-01  0.203E-02  0.152E-01  0.152E-01
  -9.960  0.334E-01  0.194E-02  0.157E-01  0.157E-01
  -9.950  0.344E-01  0.184E-02  0.163E-01  0.163E-01
  -9.940  0.354E-01  0.173E-02  0.168E-01  0.168E-01
  -9.930  0.363E-01  0.161E-02  0.173E-01  0.173E-01
  -9.920  0.371E-01  0.148E-02  0.178E-01  0.178E-01
  -9.910  0.379E-01  0.135E-02  0.183E-01  0.183E-01
  -9.900  0.386E-01  0.123E-02  0.187E-01  0.187E-01
  -9.890  0.393E-01  0.110E-02  0.191E-01  0.191E-01
  -9.880  0.399E-01  0.990E-03  0.195E-01  0.195E-01
  -9.870  0.405E-01  0.885E-03  0.198E-01  0.198E-01
  -9.860  0.410E-01  0.791E-03  0.201E-01  0.201E-01
  -9.850  0.414E-01  0.710E-03  0.204E-01  0.204E-01
  -9.840  0.418E-01  0.643E-03  0.206E-01  0.206E-01
  -9.830  0.422E-01  0.591E-03  0.208E-01  0.208E-01
  -9.820  0.425E-01  0.556E-03  0.210E-01  0.210E-01
  -9.810  0.428E-01  0.537E-03  0.211E-01  0.211E-01
  -9.800  0.431E-01  0.535E-03  0.213E-01  0.213E-01
  -9.790  0.433E-01  0.549E-03  0.214E-01  0.214E-01
  -9.780  0.436E-01  0.580E-03  0.215E-01  0.215E-01
  -9.770  0.438E-01  0.628E-03  0.216E-01  0.216E-01
  -9.760  0.441E-01  0.692E-03  0.217E-01  0.217E-01
  -9.750  0.444E-01  0.772E-03  0.218E-01  0.218E-01
  -9.740  0.447E-01  0.865E-03  0.219E-01  0.219E-01
  -9.730  0.450E-01  0.972E-03  0.220E-01  0.220E-01
  -9.720  0.454E-01  0.109E-02  0.221E-01  0.221E-01
  -9.710  0.458E-01  0.122E-02  0.223E-01  0.223E-01
  -9.700  0.461E-01  0.135E-02  0.224E-01  0.224E-01
  -9.690  0.465E-01  0.149E-02  0.225E-01  0.225E-01
  -9.680  0.468E-01  0.163E-02  0.226E-01  0.226E-01
  -9.670  0.470E-01  0.177E-02  0.226E-01  0.226E-01
  -9.660  0.472E-01  0.190E-02  0.226E-01  0.226E-01
  -9.650  0.472E-01  0.203E-02  0.226E-01  0.226E-01
  -9.640  0.472E-01  0.214E-02  0.225E-01  0.225E-01
  -9.630  0.469E-01  0.223E-02  0.223E-01  0.223E-01
  -9.620  0.465E-01  0.231E-02  0.221E-01  0.221E-01
  -9.610  0.459E-01  0.237E-02  0.218E-01  0.218E-01
  -9.600  0.451E-01  0.240E-02  0.214E-01  0.214E-01
  -9.590  0.441E-01  0.241E-02  0.209E-01  0.209E-01
  -9.580  0.429E-01  0.240E-02  0.203E-01  0.203E-01
  -9.570  0.416E-01  0.236E-02  0.196E-01  0.196E-01
  -9.560  0.400E-01  0.230E-02  0.189E-01  0.189E-01
  -9.550  0.383E-01  0.222E-02  0.181E-01  0.181E-01
  -9.540  0.365E-01  0.212E-02  0.172E-01  0.172E-01
  -9.530  0.347E-01  0.201E-02  0.163E-01  0.163E-01
  -9.520  0.328E-01  0.188E-02  0.154E-01  0.154E-01
  -9.510  0.309E-01  0.174E-02  0.146E-01  0.146E-01
  -9.500  0.290E-01  0.160E-02  0.137E-01  0.137E-01
  -9.490  0.272E-01  0.146E-02  0.129E-01  0.129E-01
  -9.480  0.255E-01  0.132E-02  0.121E-01  0.121E-01
  -9.470  0.240E-01  0.118E-02  0.114E-01  0.114E-01
  -9.460  0.227E-01  0.104E-02  0.108E-01  0.108E-01
  -9.450  0.216E-01  0.917E-03  0.103E-01  0.103E-01
  -9.440  0.206E-01  0.801E-03  0.992E-02  0.992E-02
  -9.430  0.199E-01  0.694E-03  0.962E-02  0.962E-02
  -9.420  0.194E-01  0.600E-03  0.941E-02  0.941E-02
  -9.410  0.191E-01  0.517E-03  0.930E-02  0.930E-02
  -9.400  0.190E-01  0.446E-03  0.927E-02  0.927E-02
  -9.390  0.190E-01  0.388E-03  0.931E-02  0.931E-02
  -9.380  0.192E-01  0.342E-03  0.942E-02  0.942E-02
  -9.370  0.194E-01  0.309E-03  0.956E-02  0.956E-02
  -9.360  0.198E-01  0.288E-03  0.974E-02  0.974E-02
  -9.350  0.201E-01  0.279E-03  0.993E-02  0.993E-02
  -9.340  0.205E-01  0.284E-03  0.101E-01  0.101E-01
  -9.330  0.209E-01  0.301E-03  0.103E-01  0.103E-01
  -9.320  0.212E-01  0.332E-03  0.105E-01  0.105E-01
  -9.310  0.215E-01  0.376E-03  0.106E-01  0.106E-01
  -9.300  0.218E-01  0.434E-03  0.107E-01  0.107E-01
  -9.290  0.219E-01  0.507E-03  0.107E-01  0.107E-01
  -9.280  0.220E-01  0.593E-03  0.107E-01  0.107E-01
  -9.270  0.221E-01  0.694E-03  0.107E-01  0.107E-01
  -9.260  0.221E-01  0.809E-03  0.106E-01  0.106E-01
  -9.250  0.220E-01  0.936E-03  0.105E-01  0.105E-01
  -9.240  0.219E-01  0.107E-02  0.104E-01  0.104E-01
  -9.230  0.217E-01  0.122E-02  0.102E-01  0.102E-01
  -9.220  0.215E-01  0.138E-02  0.101E-01  0.101E-01
  -9.210  0.213E-01  0.154E-02  0.989E-02  0.989E-02
  -9.200  0.211E-01  0.170E-02  0.970E-02  0.970E-02
  -9.190  0.209E-01  0.186E-02  0.951E-02  0.951E-02
  -9.180  0.207E-01  0.201E-02  0.933E-02  0.933E-02
  -9.170  0.204E-01  0.216E-02  0.915E-02  0.915E-02
  -9.160  0.202E-01  0.229E-02  0.898E-02  0.898E-02
  -9.150  0.200E-01  0.240E-02  0.882E-02  0.882E-02
  -9.140  0.198E-01  0.249E-02  0.868E-02  0.868E-02
  -9.130  0.197E-01  0.255E-02  0.855E-02  0.855E-02
  -9.120  0.195E-01  0.259E-02  0.844E-02  0.844E-02
  -9.110  0.193E-01  0.261E-02  0.835E-02  0.835E-02
  -9.100  0.192E-01  0.259E-02  0.829E-02  0.829E-02
  -9.090  0.190E-01  0.255E-02  0.825E-02  0.825E-02
  -9.080  0.189E-01  0.248E-02  0.823E-02  0.823E-02
  -9.070  0.189E-01  0.239E-02  0.824E-02  0.824E-02
  -9.060  0.188E-01  0.228E-02  0.828E-02  0.828E-02
  -9.050  0.188E-01  0.215E-02  0.835E-02  0.835E-02
  -9.040  0.189E-01  0.200E-02  0.845E-02  0.845E-02
  -9.030  0.190E-01  0.185E-02  0.858E-02  0.858E-02
  -9.020  0.192E-01  0.169E-02  0.874E-02  0.874E-02
  -9.010  0.194E-01  0.153E-02  0.894E-02  0.894E-02
  -9.000  0.197E-01  0.137E-02  0.917E-02  0.917E-02
  -8.990  0.201E-01  0.121E-02  0.944E-02  0.944E-02
  -8.980  0.205E-01  0.106E-02  0.974E-02  0.974E-02
  -8.970  0.211E-01  0.922E-03  0.101E-01  0.101E-01
  -8.960  0.217E-01  0.794E-03  0.105E-01  0.105E-01
  -8.950  0.224E-01  0.678E-03  0.109E-01  0.109E-01
  -8.940  0.232E-01  0.575E-03  0.113E-01  0.113E-01
  -8.930  0.241E-01  0.485E-03  0.118E-01  0.118E-01
  -8.920  0.251E-01  0.408E-03  0.123E-01  0.123E-01
  -8.910  0.262E-01  0.344E-03  0.129E-01  0.129E-01
  -8.900  0.273E-01  0.292E-03  0.135E-01  0.135E-01
  -8.890  0.284E-01  0.251E-03  0.141E-01  0.141E-01
  -8.880  0.296E-01  0.221E-03  0.147E-01  0.147E-01
  -8.870  0.309E-01  0.201E-03  0.153E-01  0.153E-01
  -8.860  0.321E-01  0.190E-03  0.160E-01  0.160E-01
  -8.850  0.333E-01  0.188E-03  0.166E-01  0.166E-01
  -8.840  0.345E-01  0.195E-03  0.171E-01  0.171E-01
  -8.830  0.356E-01  0.210E-03  0.177E-01  0.177E-01
  -8.820  0.366E-01  0.234E-03  0.182E-01  0.182E-01
  -8.810  0.376E-01  0.267E-03  0.186E-01  0.186E-01
  -8.800  0.384E-01  0.308E-03  0.190E-01  0.190E-01
  -8.790  0.390E-01  0.359E-03  0.193E-01  0.193E-01
  -8.780  0.395E-01  0.421E-03  0.195E-01  0.195E-01
  -8.770  0.398E-01  0.493E-03  0.196E-01  0.196E-01
  -8.760  0.399E-01  0.576E-03  0.196E-01  0.196E-01
  -8.750  0.397E-01  0.670E-03  0.195E-01  0.195E-01
  -8.740  0.394E-01  0.775E-03  0.193E-01  0.193E-01
  -8.730  0.389E-01  0.892E-03  0.190E-01  0.190E-01
  -8.720  0.381E-01  0.102E-02  0.185E-01  0.185E-01
  -8.710  0.372E-01  0.116E-02  0.180E-01  0.180E-01
  -8.700  0.360E-01  0.130E-02  0.174E-01  0.174E-01
  -8.690  0.347E-01  0.145E-02  0.166E-01  0.166E-01
  -8.680  0.333E-01  0.160E-02  0.158E-01  0.158E-01
  -8.670  0.317E-01  0.175E-02  0.150E-01  0.150E-01
  -8.660  0.300E-01  0.190E-02  0.140E-01  0.140E-01
  -8.650  0.282E-01  0.204E-02  0.131E-01  0.131E-01
  -8.640  0.264E-01  0.217E-02  0.121E-01  0.121E-01
  -8.630  0.246E-01  0.229E-02  0.111E-01  0.111E-01
  -8.620  0.227E-01  0.239E-02  0.102E-01  0.102E-01
  -8.610  0.209E-01  0.247E-02  0.921E-02  0.921E-02
  -8.600  0.191E-01  0.252E-02  0.830E-02  0.830E-02
  -8.590  0.174E-01  0.255E-02  0.742E-02  0.742E-02
  -8.580  0.158E-01  0.256E-02  0.660E-02  0.660E-02
  -8.570  0.142E-01  0.254E-02  0.585E-02  0.585E-02
  -8.560  0.128E-01  0.249E-02  0.516E-02  0.516E-02
  -8.550  0.115E-01  0.242E-02  0.454E-02  0.454E-02
  -8.540  0.103E-01  0.233E-02  0.399E-02  0.399E-02
  -8.530  0.926E-02  0.222E-02  0.352E-02  0.352E-02
  -8.520  0.834E-02  0.209E-02  0.313E-02  0.313E-02
  -8.510  0.756E-02  0.195E-02  0.280E-02  0.280E-02
  -8.500  0.691E-02  0.180E-02  0.255E-02  0.255E-02
  -8.490  0.639E-02  0.165E-02  0.237E-02  0.237E-02
  -8.480  0.601E-02  0.150E-02  0.226E-02  0.226E-02
  -8.470  0.574E-02  0.134E-02  0.220E-02  0.220E-02
  -8.460  0.559E-02  0.120E-02  0.220E-02  0.220E-02
  -8.450  0.555E-02  0.106E-02  0.225E-02  0.225E-02
  -8.440  0.560E-02  0.925E-03  0.234E-02  0.234E-02
  -8.430  0.574E-02  0.803E-03  0.247E-02  0.247E-02
  -8.420  0.594E-02  0.693E-03  0.262E-02  0.262E-02
  -8.410  0.620E-02  0.594E-03  0.280E-02  0.280E-02
  -8.400  0.650E-02  0.507E-03  0.300E-02  0.300E-02
  -8.390  0.682E-02  0.432E-03  0.320E-02  0.320E-02
  -8.380  0.715E-02  0.367E-03  0.339E-02  0.339E-02
  -8.370  0.747E-02  0.313E-03  0.358E-02  0.358E-02
  -8.360  0.777E-02  0.269E-03  0.375E-02  0.375E-02
  -8.350  0.802E-02  0.234E-03  0.389E-02  0.389E-02
  -8.340  0.823E-02  0.208E-03  0.401E-02  0.401E-02
  -8.330  0.837E-02  0.190E-03  0.409E-02  0.409E-02
  -8.320  0.845E-02  0.179E-03  0.414E-02  0.414E-02
  -8.310  0.847E-02  0.176E-03  0.415E-02  0.415E-02
  -8.300  0.841E-02  0.179E-03  0.411E-02  0.411E-02
  -8.290  0.828E-02  0.190E-03  0.405E-02  0.405E-02
  -8.280  0.810E-02  0.208E-03  0.395E-02  0.395E-02
  -8.270  0.787E-02  0.234E-03  0.382E-02  0.382E-02
  -8.260  0.760E-02  0.267E-03  0.367E-02  0.367E-02
  -8.250  0.730E-02  0.308E-03  0.350E-02  0.350E-02
  -8.240  0.700E-02  0.358E-03  0.332E-02  0.332E-02
  -8.230  0.670E-02  0.417E-03  0.314E-02  0.314E-02
  -8.220  0.641E-02  0.485E-03  0.296E-02  0.296E-02
  -8.210  0.617E-02  0.562E-03  0.280E-02  0.280E-02
  -8.200  0.596E-02  0.648E-03  0.266E-02  0.266E-02
  -8.190  0.582E-02  0.742E-03  0.254E-02  0.254E-02
  -8.180  0.573E-02  0.845E-03  0.244E-02  0.244E-02
  -8.170  0.572E-02  0.955E-03  0.238E-02  0.238E-02
  -8.160  0.579E-02  0.107E-02  0.236E-02  0.236E-02
  -8.150  0.592E-02  0.119E-02  0.237E-02  0.237E-02
  -8.140  0.613E-02  0.132E-02  0.241E-02  0.241E-02
  -8.130  0.641E-02  0.144E-02  0.248E-02  0.248E-02
  -8.120  0.674E-02  0.156E-02  0.259E-02  0.259E-02
  -8.110  0.713E-02  0.168E-02  0.273E-02  0.273E-02
  -8.100  0.757E-02  0.180E-02  0.289E-02  0.289E-02
  -8.090  0.804E-02  0.190E-02  0.307E-02  0.307E-02
  -8.080  0.853E-02  0.200E-02  0.326E-02  0.326E-02
  -8.070  0.903E-02  0.208E-02  0.347E-02  0.347E-02
  -8.060  0.953E-02  0.215E-02  0.369E-02  0.369E-02
  -8.050  0.100E-01  0.220E-02  0.390E-02  0.390E-02
  -8.040  0.105E-01  0.224E-02  0.412E-02  0.412E-02
  -8.030  0.109E-01  0.226E-02  0.433E-02  0.433E-02
  -8.020  0.113E-01  0.226E-02  0.452E-02  0.452E-02
  -8.010  0.116E-01  0.224E-02  0.470E-02  0.470E-02
  -8.000  0.119E-01  0.220E-02  0.486E-02  0.486E-02
  -7.990  0.121E-01  0.215E-02  0.499E-02  0.499E-02
  -7.980  0.123E-01  0.208E-02  0.510E-02  0.510E-02
  -7.970  0.123E-01  0.200E-02  0.517E-02  0.517E-02
  -7.960  0.123E-01  0.190E-02  0.521E-02  0.521E-02
  -7.950  0.122E-01  0.180E-02  0.522E-02  0.522E-02
  -7.940  0.121E-01  0.169E-02  0.520E-02  0.520E-02
  -7.930  0.119E-01  0.158E-02  0.514E-02  0.514E-02
  -7.920  0.116E-01  0.147E-02  0.505E-02  0.505E-02
  -7.910  0.112E-01  0.135E-02  0.493E-02  0.493E-02
  -7.900  0.108E-01  0.124E-02  0.478E-02  0.478E-02
  -7.890  0.103E-01  0.114E-02  0.460E-02  0.460E-02
  -7.880  0.986E-02  0.104E-02  0.441E-02  0.441E-02
  -7.870  0.936E-02  0.951E-03  0.420E-02  0.420E-02
  -7.860  0.885E-02  0.870E-03  0.399E-02  0.399E-02
  -7.850  0.834E-02  0.798E-03  0.377E-02  0.377E-02
  -7.840  0.786E-02  0.735E-03  0.356E-02  0.356E-02
  -7.830  0.740E-02  0.683E-03  0.336E-02  0.336E-02
  -7.820  0.698E-02  0.640E-03  0.317E-02  0.317E-02
  -7.810  0.662E-02  0.606E-03  0.300E-02  0.300E-02
  -7.800  0.630E-02  0.581E-03  0.286E-02  0.286E-02
  -7.790  0.606E-02  0.564E-03  0.275E-02  0.275E-02
  -7.780  0.587E-02  0.554E-03  0.266E-02  0.266E-02
  -7.770  0.576E-02  0.551E-03  0.260E-02  0.260E-02
  -7.760  0.572E-02  0.554E-03  0.258E-02  0.258E-02
  -7.750  0.574E-02  0.562E-03  0.259E-02  0.259E-02
  -7.740  0.582E-02  0.576E-03  0.262E-02  0.262E-02
  -7.730  0.596E-02  0.594E-03  0.268E-02  0.268E-02
  -7.720  0.615E-02  0.616E-03  0.277E-02  0.277E-02
  -7.710  0.639E-02  0.642E-03  0.287E-02  0.287E-02
  -7.700  0.666E-02  0.673E-03  0.299E-02  0.299E-02
  -7.690  0.696E-02  0.707E-03  0.313E-02  0.313E-02
  -7.680  0.727E-02  0.746E-03  0.326E-02  0.326E-02
  -7.670  0.760E-02  0.788E-03  0.341E-02  0.341E-02
  -7.660  0.793E-02  0.835E-03  0.355E-02  0.355E-02
  -7.650  0.825E-02  0.884E-03  0.368E-02  0.368E-02
  -7.640  0.856E-02  0.938E-03  0.381E-02  0.381E-02
  -7.630  0.885E-02  0.994E-03  0.393E-02  0.393E-02
  -7.620  0.912E-02  0.105E-02  0.403E-02  0.403E-02
  -7.610  0.937E-02  0.111E-02  0.413E-02  0.413E-02
  -7.600  0.959E-02  0.118E-02  0.421E-02  0.421E-02
  -7.590  0.979E-02  0.124E-02  0.428E-02  0.428E-02
  -7.580  0.998E-02  0.130E-02  0.434E-02  0.434E-02
  -7.570  0.101E-01  0.136E-02  0.440E-02  0.440E-02
  -7.560  0.103E-01  0.141E-02  0.445E-02  0.445E-02
  -7.550  0.105E-01  0.146E-02  0.450E-02  0.450E-02
  -7.540  0.106E-01  0.151E-02  0.456E-02  0.456E-02
  -7.530  0.108E-01  0.156E-02  0.462E-02  0.462E-02
  -7.520  0.110E-01  0.159E-02  0.470E-02  0.470E-02
  -7.510  0.112E-01  0.162E-02  0.480E-02  0.480E-02
  -7.500  0.115E-01  0.165E-02  0.491E-02  0.491E-02
  -7.490  0.117E-01  0.166E-02  0.504E-02  0.504E-02
  -7.480  0.120E-01  0.167E-02  0.519E-02  0.519E-02
  -7.470  0.124E-01  0.168E-02  0.536E-02  0.536E-02
  -7.460  0.128E-01  0.167E-02  0.555E-02  0.555E-02
  -7.450  0.132E-01  0.166E-02  0.575E-02  0.575E-02
  -7.440  0.136E-01  0.164E-02  0.597E-02  0.597E-02
  -7.430  0.140E-01  0.162E-02  0.620E-02  0.620E-02
  -7.420  0.145E-01  0.159E-02  0.643E-02  0.643E-02
  -7.410  0.149E-01  0.155E-02  0.666E-02  0.666E-02
  -7.400  0.153E-01  0.151E-02  0.688E-02  0.688E-02
  -7.390  0.156E-01  0.145E-02  0.709E-02  0.709E-02
  -7.380  0.160E-01  0.140E-02  0.728E-02  0.728E-02
  -7.370  0.162E-01  0.134E-02  0.744E-02  0.744E-02
  -7.360  0.164E-01  0.127E-02  0.757E-02  0.757E-02
  -7.350  0.165E-01  0.120E-02  0.767E-02  0.767E-02
  -7.340  0.166E-01  0.113E-02  0.772E-02  0.772E-02
  -7.330  0.165E-01  0.106E-02  0.773E-02  0.773E-02
  -7.320  0.164E-01  0.981E-03  0.769E-02  0.769E-02
  -7.310  0.161E-01  0.907E-03  0.760E-02  0.760E-02
  -7.300  0.158E-01  0.834E-03  0.747E-02  0.747E-02
  -7.290  0.153E-01  0.764E-03  0.729E-02  0.729E-02
  -7.280  0.148E-01  0.698E-03  0.706E-02  0.706E-02
  -7.270  0.142E-01  0.635E-03  0.679E-02  0.679E-02
  -7.260  0.136E-01  0.578E-03  0.649E-02  0.649E-02
  -7.250  0.128E-01  0.527E-03  0.615E-02  0.615E-02
  -7.240  0.121E-01  0.482E-03  0.579E-02  0.579E-02
  -7.230  0.113E-01  0.444E-03  0.541E-02  0.541E-02
  -7.220  0.104E-01  0.413E-03  0.501E-02  0.501E-02
  -7.210  0.960E-02  0.389E-03  0.461E-02  0.461E-02
  -7.200  0.878E-02  0.372E-03  0.420E-02  0.420E-02
  -7.190  0.797E-02  0.363E-03  0.380E-02  0.380E-02
  -7.180  0.719E-02  0.361E-03  0.341E-02  0.341E-02
  -7.170  0.644E-02  0.366E-03  0.304E-02  0.304E-02
  -7.160  0.574E-02  0.378E-03  0.268E-02  0.268E-02
  -7.150  0.509E-02  0.397E-03  0.235E-02  0.235E-02
  -7.140  0.450E-02  0.422E-03  0.204E-02  0.204E-02
  -7.130  0.396E-02  0.452E-03  0.175E-02  0.175E-02
  -7.120  0.348E-02  0.488E-03  0.150E-02  0.150E-02
  -7.110  0.306E-02  0.528E-03  0.127E-02  0.127E-02
  -7.100  0.269E-02  0.571E-03  0.106E-02  0.106E-02
  -7.090  0.238E-02  0.617E-03  0.882E-03  0.882E-03
  -7.080  0.212E-02  0.665E-03  0.727E-03  0.727E-03
  -7.070  0.190E-02  0.712E-03  0.593E-03  0.593E-03
  -7.060  0.172E-02  0.759E-03  0.480E-03  0.480E-03
  -7.050  0.157E-02  0.804E-03  0.385E-03  0.385E-03
  -7.040  0.146E-02  0.845E-03  0.305E-03  0.305E-03
  -7.030  0.136E-02  0.883E-03  0.240E-03  0.240E-03
  -7.020  0.129E-02  0.915E-03  0.187E-03  0.187E-03
  -7.010  0.123E-02  0.943E-03  0.145E-03  0.145E-03
  -7.000  0.119E-02  0.964E-03  0.111E-03  0.111E-03
  -6.990  0.115E-02  0.981E-03  0.844E-04  0.844E-04
  -6.980  0.112E-02  0.991E-03  0.637E-04  0.637E-04
  -6.970  0.109E-02  0.997E-03  0.479E-04  0.479E-04
  -6.960  0.107E-02  0.998E-03  0.360E-04  0.360E-04
  -6.950  0.105E-02  0.995E-03  0.274E-04  0.274E-04
  -6.940  0.103E-02  0.990E-03  0.213E-04  0.213E-04
  -6.930  0.102E-02  0.982E-03  0.173E-04  0.173E-04
  -6.920  0.100E-02  0.974E-03  0.151E-04  0.151E-04
  -6.910  0.993E-03  0.964E-03  0.145E-04  0.145E-04
  -6.900  0.986E-03  0.955E-03  0.153E-04  0.153E-04
  -6.890  0.981E-03  0.946E-03  0.175E-04  0.175E-04
  -6.880  0.980E-03  0.937E-03  0.211E-04  0.211E-04
  -6.870  0.982E-03  0.929E-03  0.264E-04  0.264E-04
  -6.860  0.987E-03  0.920E-03  0.333E-04  0.333E-04
  -6.850  0.996E-03  0.912E-03  0.422E-04  0.422E-04
  -6.840  0.101E-02  0.902E-03  0.532E-04  0.532E-04
  -6.830  0.102E-02  0.890E-03  0.667E-04  0.667E-04
  -6.820  0.104E-02  0.877E-03  0.829E-04  0.829E-04
  -6.810  0.106E-02  0.860E-03  0.102E-03  0.102E-03
  -6.800  0.109E-02  0.841E-03  0.124E-03  0.124E-03
  -6.790  0.112E-02  0.819E-03  0.150E-03  0.150E-03
  -6.780  0.115E-02  0.794E-03  0.180E-03  0.180E-03
  -6.770  0.119E-02  0.765E-03  0.213E-03  0.213E-03
  -6.760  0.123E-02  0.734E-03  0.249E-03  0.249E-03
  -6.750  0.128E-02  0.701E-03  0.289E-03  0.289E-03
  -6.740  0.133E-02  0.667E-03  0.332E-03  0.332E-03
  -6.730  0.139E-02  0.632E-03  0.378E-03  0.378E-03
  -6.720  0.145E-02  0.598E-03  0.427E-03  0.427E-03
  -6.710  0.152E-02  0.566E-03  0.477E-03  0.477E-03
  -6.700  0.159E-02  0.535E-03  0.529E-03  0.529E-03
  -6.690  0.167E-02  0.508E-03  0.582E-03  0.582E-03
  -6.680  0.176E-02  0.485E-03  0.636E-03  0.636E-03
  -6.670  0.185E-02  0.467E-03  0.690E-03  0.690E-03
  -6.660  0.194E-02  0.453E-03  0.743E-03  0.743E-03
  -6.650  0.204E-02  0.445E-03  0.796E-03  0.796E-03
  -6.640  0.214E-02  0.443E-03  0.849E-03  0.849E-03
  -6.630  0.225E-02  0.446E-03  0.900E-03  0.900E-03
  -6.620  0.236E-02  0.453E-03  0.952E-03  0.952E-03
  -6.610  0.247E-02  0.466E-03  0.100E-02  0.100E-02
  -6.600  0.259E-02  0.482E-03  0.105E-02  0.105E-02
  -6.590  0.271E-02  0.502E-03  0.110E-02  0.110E-02
  -6.580  0.283E-02  0.523E-03  0.115E-02  0.115E-02
  -6.570  0.296E-02  0.546E-03  0.121E-02  0.121E-02
  -6.560  0.308E-02  0.570E-03  0.126E-02  0.126E-02
  -6.550  0.321E-02  0.592E-03  0.131E-02  0.131E-02
  -6.540  0.333E-02  0.613E-03  0.136E-02  0.136E-02
  -6.530  0.344E-02  0.632E-03  0.140E-02  0.140E-02
  -6.520  0.355E-02  0.647E-03  0.145E-02  0.145E-02
  -6.510  0.364E-02  0.659E-03  0.149E-02  0.149E-02
  -6.500  0.372E-02  0.667E-03  0.152E-02  0.152E-02
  -6.490  0.377E-02  0.670E-03  0.155E-02  0.155E-02
  -6.480  0.381E-02  0.670E-03  0.157E-02  0.157E-02
  -6.470  0.382E-02  0.665E-03  0.158E-02  0.158E-02
  -6.460  0.381E-02  0.657E-03  0.158E-02  0.158E-02
  -6.450  0.377E-02  0.647E-03  0.156E-02  0.156E-02
  -6.440  0.371E-02  0.634E-03  0.154E-02  0.154E-02
  -6.430  0.362E-02  0.619E-03  0.150E-02  0.150E-02
  -6.420  0.350E-02  0.604E-03  0.145E-02  0.145E-02
  -6.410  0.336E-02  0.589E-03  0.139E-02  0.139E-02
  -6.400  0.321E-02  0.574E-03  0.132E-02  0.132E-02
  -6.390  0.304E-02  0.560E-03  0.124E-02  0.124E-02
  -6.380  0.285E-02  0.548E-03  0.115E-02  0.115E-02
  -6.370  0.266E-02  0.537E-03  0.106E-02  0.106E-02
  -6.360  0.246E-02  0.528E-03  0.969E-03  0.969E-03
  -6.350  0.227E-02  0.520E-03  0.875E-03  0.875E-03
  -6.340  0.208E-02  0.514E-03  0.782E-03  0.782E-03
  -6.330  0.189E-02  0.509E-03  0.692E-03  0.692E-03
  -6.320  0.172E-02  0.504E-03  0.605E-03  0.605E-03
  -6.310  0.155E-02  0.500E-03  0.524E-03  0.524E-03
  -6.300  0.140E-02  0.496E-03  0.450E-03  0.450E-03
  -6.290  0.125E-02  0.491E-03  0.381E-03  0.381E-03
  -6.280  0.113E-02  0.486E-03  0.320E-03  0.320E-03
  -6.270  0.101E-02  0.480E-03  0.266E-03  0.266E-03
  -6.260  0.911E-03  0.473E-03  0.219E-03  0.219E-03
  -6.250  0.822E-03  0.465E-03  0.179E-03  0.179E-03
  -6.240  0.746E-03  0.457E-03  0.144E-03  0.144E-03
  -6.230  0.681E-03  0.449E-03  0.116E-03  0.116E-03
  -6.220  0.626E-03  0.440E-03  0.929E-04  0.929E-04
  -6.210  0.581E-03  0.432E-03  0.745E-04  0.745E-04
  -6.200  0.545E-03  0.425E-03  0.604E-04  0.604E-04
  -6.190  0.518E-03  0.418E-03  0.501E-04  0.501E-04
  -6.180  0.499E-03  0.413E-03  0.432E-04  0.432E-04
  -6.170  0.488E-03  0.409E-03  0.395E-04  0.395E-04
  -6.160  0.485E-03  0.407E-03  0.387E-04  0.387E-04
  -6.150  0.488E-03  0.406E-03  0.407E-04  0.407E-04
  -6.140  0.498E-03  0.407E-03  0.455E-04  0.455E-04
  -6.130  0.515E-03  0.409E-03  0.530E-04  0.530E-04
  -6.120  0.538E-03  0.412E-03  0.634E-04  0.634E-04
  -6.110  0.568E-03  0.415E-03  0.767E-04  0.767E-04
  -6.100  0.605E-03  0.418E-03  0.932E-04  0.932E-04
  -6.090  0.647E-03  0.422E-03  0.113E-03  0.113E-03
  -6.080  0.696E-03  0.424E-03  0.136E-03  0.136E-03
  -6.070  0.751E-03  0.426E-03  0.163E-03  0.163E-03
  -6.060  0.812E-03  0.427E-03  0.192E-03  0.192E-03
  -6.050  0.879E-03  0.427E-03  0.226E-03  0.226E-03
  -6.040  0.951E-03  0.426E-03  0.262E-03  0.262E-03
  -6.030  0.103E-02  0.423E-03  0.302E-03  0.302E-03
  -6.020  0.111E-02  0.419E-03  0.344E-03  0.344E-03
  -6.010  0.119E-02  0.413E-03  0.388E-03  0.388E-03
  -6.000  0.127E-02  0.406E-03  0.434E-03  0.434E-03
  -5.990  0.136E-02  0.398E-03  0.480E-03  0.480E-03
  -5.980  0.144E-02  0.389E-03  0.527E-03  0.527E-03
  -5.970  0.153E-02  0.380E-03  0.573E-03  0.573E-03
  -5.960  0.161E-02  0.369E-03  0.618E-03  0.618E-03
  -5.950  0.168E-02  0.359E-03  0.661E-03  0.661E-03
  -5.940  0.175E-02  0.348E-03  0.703E-03  0.703E-03
  -5.930  0.182E-02  0.337E-03  0.742E-03  0.742E-03
  -5.920  0.188E-02  0.327E-03  0.779E-03  0.779E-03
  -5.910  0.194E-02  0.317E-03  0.813E-03  0.813E-03
  -5.900  0.200E-02  0.307E-03  0.846E-03  0.846E-03
  -5.890  0.205E-02  0.297E-03  0.877E-03  0.877E-03
  -5.880  0.210E-02  0.288E-03  0.906E-03  0.906E-03
  -5.870  0.215E-02  0.280E-03  0.936E-03  0.936E-03
  -5.860  0.220E-02  0.273E-03  0.965E-03  0.965E-03
  -5.850  0.226E-02  0.266E-03  0.995E-03  0.995E-03
  -5.840  0.231E-02  0.260E-03  0.103E-02  0.103E-02
  -5.830  0.237E-02  0.255E-03  0.106E-02  0.106E-02
  -5.820  0.243E-02  0.251E-03  0.109E-02  0.109E-02
  -5.810  0.250E-02  0.246E-03  0.113E-02  0.113E-02
  -5.800  0.256E-02  0.243E-03  0.116E-02  0.116E-02
  -5.790  0.262E-02  0.239E-03  0.119E-02  0.119E-02
  -5.780  0.268E-02  0.236E-03  0.122E-02  0.122E-02
  -5.770  0.274E-02  0.233E-03  0.125E-02  0.125E-02
  -5.760  0.278E-02  0.230E-03  0.128E-02  0.128E-02
  -5.750  0.281E-02  0.226E-03  0.129E-02  0.129E-02
  -5.740  0.283E-02  0.222E-03  0.130E-02  0.130E-02
  -5.730  0.283E-02  0.218E-03  0.131E-02  0.131E-02
  -5.720  0.281E-02  0.213E-03  0.130E-02  0.130E-02
  -5.710  0.277E-02  0.208E-03  0.128E-02  0.128E-02
  -5.700  0.271E-02  0.202E-03  0.125E-02  0.125E-02
  -5.690  0.263E-02  0.196E-03  0.122E-02  0.122E-02
  -5.680  0.253E-02  0.190E-03  0.117E-02  0.117E-02
  -5.670  0.241E-02  0.183E-03  0.111E-02  0.111E-02
  -5.660  0.228E-02  0.175E-03  0.105E-02  0.105E-02
  -5.650  0.213E-02  0.168E-03  0.983E-03  0.983E-03
  -5.640  0.198E-02  0.160E-03  0.910E-03  0.910E-03
  -5.630  0.182E-02  0.153E-03  0.833E-03  0.833E-03
  -5.620  0.166E-02  0.145E-03  0.755E-03  0.755E-03
  -5.610  0.149E-02  0.138E-03  0.678E-03  0.678E-03
  -5.600  0.133E-02  0.131E-03  0.602E-03  0.602E-03
  -5.590  0.118E-02  0.125E-03  0.529E-03  0.529E-03
  -5.580  0.104E-02  0.119E-03  0.460E-03  0.460E-03
  -5.570  0.905E-03  0.113E-03  0.396E-03  0.396E-03
  -5.560  0.783E-03  0.109E-03  0.337E-03  0.337E-03
  -5.550  0.673E-03  0.104E-03  0.284E-03  0.284E-03
  -5.540  0.576E-03  0.101E-03  0.237E-03  0.237E-03
  -5.530  0.491E-03  0.977E-04  0.196E-03  0.196E-03
  -5.520  0.417E-03  0.953E-04  0.161E-03  0.161E-03
  -5.510  0.355E-03  0.935E-04  0.131E-03  0.131E-03
  -5.500  0.304E-03  0.921E-04  0.106E-03  0.106E-03
  -5.490  0.262E-03  0.913E-04  0.855E-04  0.855E-04
  -5.480  0.229E-03  0.910E-04  0.691E-04  0.691E-04
  -5.470  0.204E-03  0.911E-04  0.565E-04  0.565E-04
  -5.460  0.186E-03  0.916E-04  0.472E-04  0.472E-04
  -5.450  0.174E-03  0.925E-04  0.409E-04  0.409E-04
  -5.440  0.168E-03  0.937E-04  0.373E-04  0.373E-04
  -5.430  0.168E-03  0.953E-04  0.364E-04  0.364E-04
  -5.420  0.173E-03  0.972E-04  0.380E-04  0.380E-04
  -5.410  0.184E-03  0.994E-04  0.422E-04  0.422E-04
  -5.400  0.200E-03  0.102E-03  0.489E-04  0.489E-04
  -5.390  0.221E-03  0.105E-03  0.583E-04  0.583E-04
  -5.380  0.249E-03  0.107E-03  0.706E-04  0.706E-04
  -5.370  0.283E-03  0.111E-03  0.861E-04  0.861E-04
  -5.360  0.324E-03  0.114E-03  0.105E-03  0.105E-03
  -5.350  0.372E-03  0.117E-03  0.128E-03  0.128E-03
  -5.340  0.429E-03  0.120E-03  0.154E-03  0.154E-03
  -5.330  0.493E-03  0.123E-03  0.185E-03  0.185E-03
  -5.320  0.567E-03  0.126E-03  0.221E-03  0.221E-03
  -5.310  0.649E-03  0.128E-03  0.260E-03  0.260E-03
  -5.300  0.740E-03  0.130E-03  0.305E-03  0.305E-03
  -5.290  0.840E-03  0.132E-03  0.354E-03  0.354E-03
  -5.280  0.949E-03  0.133E-03  0.408E-03  0.408E-03
  -5.270  0.106E-02  0.134E-03  0.466E-03  0.466E-03
  -5.260  0.119E-02  0.134E-03  0.527E-03  0.527E-03
  -5.250  0.132E-02  0.133E-03  0.592E-03  0.592E-03
  -5.240  0.145E-02  0.132E-03  0.659E-03  0.659E-03
  -5.230  0.159E-02  0.130E-03  0.729E-03  0.729E-03
  -5.220  0.173E-02  0.129E-03  0.799E-03  0.799E-03
  -5.210  0.187E-02  0.126E-03  0.869E-03  0.869E-03
  -5.200  0.200E-02  0.124E-03  0.939E-03  0.939E-03
  -5.190  0.213E-02  0.121E-03  0.101E-02  0.101E-02
  -5.180  0.226E-02  0.118E-03  0.107E-02  0.107E-02
  -5.170  0.238E-02  0.115E-03  0.113E-02  0.113E-02
  -5.160  0.249E-02  0.112E-03  0.119E-02  0.119E-02
  -5.150  0.258E-02  0.110E-03  0.124E-02  0.124E-02
  -5.140  0.267E-02  0.107E-03  0.128E-02  0.128E-02
  -5.130  0.273E-02  0.104E-03  0.131E-02  0.131E-02
  -5.120  0.278E-02  0.102E-03  0.134E-02  0.134E-02
  -5.110  0.282E-02  0.998E-04  0.136E-02  0.136E-02
  -5.100  0.283E-02  0.978E-04  0.137E-02  0.137E-02
  -5.090  0.283E-02  0.960E-04  0.136E-02  0.136E-02
  -5.080  0.280E-02  0.944E-04  0.135E-02  0.135E-02
  -5.070  0.276E-02  0.931E-04  0.133E-02  0.133E-02
  -5.060  0.269E-02  0.920E-04  0.130E-02  0.130E-02
  -5.050  0.261E-02  0.910E-04  0.126E-02  0.126E-02
  -5.040  0.252E-02  0.903E-04  0.121E-02  0.121E-02
  -5.030  0.241E-02  0.898E-04  0.116E-02  0.116E-02
  -5.020  0.228E-02  0.895E-04  0.110E-02  0.110E-02
  -5.010  0.215E-02  0.893E-04  0.103E-02  0.103E-02
  -5.000  0.201E-02  0.892E-04  0.960E-03  0.960E-03
  -4.990  0.187E-02  0.891E-04  0.888E-03  0.888E-03
  -4.980  0.172E-02  0.892E-04  0.814E-03  0.814E-03
  -4.970  0.157E-02  0.893E-04  0.741E-03  0.741E-03
  -4.960  0.143E-02  0.894E-04  0.669E-03  0.669E-03
  -4.950  0.129E-02  0.895E-04  0.600E-03  0.600E-03
  -4.940  0.116E-02  0.897E-04  0.534E-03  0.534E-03
  -4.930  0.103E-02  0.898E-04  0.472E-03  0.472E-03
  -4.920  0.920E-03  0.900E-04  0.415E-03  0.415E-03
  -4.910  0.817E-03  0.902E-04  0.363E-03  0.363E-03
  -4.900  0.724E-03  0.905E-04  0.317E-03  0.317E-03
  -4.890  0.641E-03  0.909E-04  0.275E-03  0.275E-03
  -4.880  0.569E-03  0.915E-04  0.239E-03  0.239E-03
  -4.870  0.508E-03  0.921E-04  0.208E-03  0.208E-03
  -4.860  0.455E-03  0.930E-04  0.181E-03  0.181E-03
  -4.850  0.412E-03  0.940E-04  0.159E-03  0.159E-03
  -4.840  0.376E-03  0.952E-04  0.141E-03  0.141E-03
  -4.830  0.348E-03  0.967E-04  0.126E-03  0.126E-03
  -4.820  0.326E-03  0.983E-04  0.114E-03  0.114E-03
  -4.810  0.310E-03  0.100E-03  0.105E-03  0.105E-03
  -4.800  0.299E-03  0.102E-03  0.983E-04  0.983E-04
  -4.790  0.292E-03  0.105E-03  0.937E-04  0.937E-04
  -4.780  0.290E-03  0.107E-03  0.912E-04  0.912E-04
  -4.770  0.291E-03  0.110E-03  0.904E-04  0.904E-04
  -4.760  0.296E-03  0.114E-03  0.914E-04  0.914E-04
  -4.750  0.305E-03  0.117E-03  0.942E-04  0.942E-04
  -4.740  0.318E-03  0.120E-03  0.989E-04  0.989E-04
  -4.730  0.336E-03  0.124E-03  0.106E-03  0.106E-03
  -4.720  0.357E-03  0.128E-03  0.115E-03  0.115E-03
  -4.710  0.384E-03  0.132E-03  0.126E-03  0.126E-03
  -4.700  0.417E-03  0.136E-03  0.140E-03  0.140E-03
  -4.690  0.455E-03  0.140E-03  0.158E-03  0.158E-03
  -4.680  0.501E-03  0.143E-03  0.179E-03  0.179E-03
  -4.670  0.553E-03  0.146E-03  0.203E-03  0.203E-03
  -4.660  0.613E-03  0.149E-03  0.232E-03  0.232E-03
  -4.650  0.682E-03  0.151E-03  0.265E-03  0.265E-03
  -4.640  0.759E-03  0.153E-03  0.303E-03  0.303E-03
  -4.630  0.844E-03  0.154E-03  0.345E-03  0.345E-03
  -4.620  0.939E-03  0.154E-03  0.392E-03  0.392E-03
  -4.610  0.104E-02  0.154E-03  0.444E-03  0.444E-03
  -4.600  0.115E-02  0.153E-03  0.500E-03  0.500E-03
  -4.590  0.127E-02  0.152E-03  0.560E-03  0.560E-03
  -4.580  0.140E-02  0.150E-03  0.623E-03  0.623E-03
  -4.570  0.152E-02  0.147E-03  0.689E-03  0.689E-03
  -4.560  0.166E-02  0.144E-03  0.757E-03  0.757E-03
  -4.550  0.179E-02  0.141E-03  0.825E-03  0.825E-03
  -4.540  0.192E-02  0.137E-03  0.893E-03  0.893E-03
  -4.530  0.205E-02  0.134E-03  0.959E-03  0.959E-03
  -4.520  0.218E-02  0.131E-03  0.102E-02  0.102E-02
  -4.510  0.229E-02  0.127E-03  0.108E-02  0.108E-02
  -4.500  0.239E-02  0.124E-03  0.113E-02  0.113E-02
  -4.490  0.248E-02  0.121E-03  0.118E-02  0.118E-02
  -4.480  0.255E-02  0.118E-03  0.122E-02  0.122E-02
  -4.470  0.261E-02  0.116E-03  0.125E-02  0.125E-02
  -4.460  0.265E-02  0.113E-03  0.127E-02  0.127E-02
  -4.450  0.266E-02  0.111E-03  0.128E-02  0.128E-02
  -4.440  0.266E-02  0.109E-03  0.127E-02  0.127E-02
  -4.430  0.263E-02  0.108E-03  0.126E-02  0.126E-02
  -4.420  0.258E-02  0.106E-03  0.124E-02  0.124E-02
  -4.410  0.252E-02  0.105E-03  0.121E-02  0.121E-02
  -4.400  0.244E-02  0.104E-03  0.117E-02  0.117E-02
  -4.390  0.234E-02  0.103E-03  0.112E-02  0.112E-02
  -4.380  0.223E-02  0.103E-03  0.106E-02  0.106E-02
  -4.370  0.211E-02  0.103E-03  0.100E-02  0.100E-02
  -4.360  0.198E-02  0.103E-03  0.939E-03  0.939E-03
  -4.350  0.185E-02  0.103E-03  0.875E-03  0.875E-03
  -4.340  0.172E-02  0.103E-03  0.810E-03  0.810E-03
  -4.330  0.160E-02  0.103E-03  0.747E-03  0.747E-03
  -4.320  0.148E-02  0.104E-03  0.688E-03  0.688E-03
  -4.310  0.137E-02  0.104E-03  0.634E-03  0.634E-03
  -4.300  0.128E-02  0.105E-03  0.587E-03  0.587E-03
  -4.290  0.120E-02  0.105E-03  0.548E-03  0.548E-03
  -4.280  0.115E-02  0.106E-03  0.520E-03  0.520E-03
  -4.270  0.111E-02  0.107E-03  0.503E-03  0.503E-03
  -4.260  0.111E-02  0.108E-03  0.499E-03  0.499E-03
  -4.250  0.113E-02  0.109E-03  0.511E-03  0.511E-03
  -4.240  0.119E-02  0.111E-03  0.539E-03  0.539E-03
  -4.230  0.128E-02  0.113E-03  0.584E-03  0.584E-03
  -4.220  0.141E-02  0.115E-03  0.650E-03  0.650E-03
  -4.210  0.159E-02  0.117E-03  0.737E-03  0.737E-03
  -4.200  0.181E-02  0.120E-03  0.847E-03  0.847E-03
  -4.190  0.209E-02  0.123E-03  0.981E-03  0.981E-03
  -4.180  0.241E-02  0.127E-03  0.114E-02  0.114E-02
  -4.170  0.279E-02  0.131E-03  0.133E-02  0.133E-02
  -4.160  0.322E-02  0.135E-03  0.154E-02  0.154E-02
  -4.150  0.371E-02  0.140E-03  0.178E-02  0.178E-02
  -4.140  0.425E-02  0.145E-03  0.205E-02  0.205E-02
  -4.130  0.485E-02  0.150E-03  0.235E-02  0.235E-02
  -4.120  0.551E-02  0.155E-03  0.268E-02  0.268E-02
  -4.110  0.621E-02  0.160E-03  0.302E-02  0.302E-02
  -4.100  0.695E-02  0.165E-03  0.339E-02  0.339E-02
  -4.090  0.773E-02  0.169E-03  0.378E-02  0.378E-02
  -4.080  0.853E-02  0.173E-03  0.418E-02  0.418E-02
  -4.070  0.936E-02  0.177E-03  0.459E-02  0.459E-02
  -4.060  0.102E-01  0.180E-03  0.500E-02  0.500E-02
  -4.050  0.110E-01  0.182E-03  0.541E-02  0.541E-02
  -4.040  0.118E-01  0.184E-03  0.581E-02  0.581E-02
  -4.030  0.126E-01  0.185E-03  0.619E-02  0.619E-02
  -4.020  0.133E-01  0.185E-03  0.655E-02  0.655E-02
  -4.010  0.139E-01  0.184E-03  0.688E-02  0.688E-02
  -4.000  0.145E-01  0.182E-03  0.718E-02  0.718E-02
  -3.990  0.150E-01  0.180E-03  0.743E-02  0.743E-02
  -3.980  0.155E-01  0.176E-03  0.765E-02  0.765E-02
  -3.970  0.158E-01  0.172E-03  0.782E-02  0.782E-02
  -3.960  0.160E-01  0.168E-03  0.794E-02  0.794E-02
  -3.950  0.162E-01  0.163E-03  0.801E-02  0.801E-02
  -3.940  0.162E-01  0.158E-03  0.804E-02  0.804E-02
  -3.930  0.162E-01  0.153E-03  0.803E-02  0.803E-02
  -3.920  0.161E-01  0.148E-03  0.797E-02  0.797E-02
  -3.910  0.159E-01  0.143E-03  0.788E-02  0.788E-02
  -3.900  0.157E-01  0.138E-03  0.776E-02  0.776E-02
  -3.890  0.154E-01  0.134E-03  0.761E-02  0.761E-02
  -3.880  0.150E-01  0.130E-03  0.744E-02  0.744E-02
  -3.870  0.146E-01  0.127E-03  0.725E-02  0.725E-02
  -3.860  0.142E-01  0.125E-03  0.706E-02  0.706E-02
  -3.850  0.138E-01  0.123E-03  0.686E-02  0.686E-02
  -3.840  0.134E-01  0.122E-03  0.666E-02  0.666E-02
  -3.830  0.130E-01  0.121E-03  0.646E-02  0.646E-02
  -3.820  0.127E-01  0.121E-03  0.628E-02  0.628E-02
  -3.810  0.123E-01  0.121E-03  0.610E-02  0.610E-02
  -3.800  0.120E-01  0.122E-03  0.593E-02  0.593E-02
  -3.790  0.117E-01  0.123E-03  0.578E-02  0.578E-02
  -3.780  0.114E-01  0.124E-03  0.565E-02  0.565E-02
  -3.770  0.112E-01  0.126E-03  0.553E-02  0.553E-02
  -3.760  0.110E-01  0.128E-03  0.543E-02  0.543E-02
  -3.750  0.108E-01  0.131E-03  0.535E-02  0.535E-02
  -3.740  0.107E-01  0.133E-03  0.528E-02  0.528E-02
  -3.730  0.106E-01  0.137E-03  0.522E-02  0.522E-02
  -3.720  0.105E-01  0.140E-03  0.518E-02  0.518E-02
  -3.710  0.104E-01  0.144E-03  0.515E-02  0.515E-02
  -3.700  0.104E-01  0.148E-03  0.512E-02  0.512E-02
  -3.690  0.104E-01  0.152E-03  0.511E-02  0.511E-02
  -3.680  0.104E-01  0.157E-03  0.510E-02  0.510E-02
  -3.670  0.104E-01  0.162E-03  0.510E-02  0.510E-02
  -3.660  0.104E-01  0.168E-03  0.510E-02  0.510E-02
  -3.650  0.104E-01  0.173E-03  0.510E-02  0.510E-02
  -3.640  0.104E-01  0.179E-03  0.510E-02  0.510E-02
  -3.630  0.104E-01  0.186E-03  0.510E-02  0.510E-02
  -3.620  0.104E-01  0.192E-03  0.509E-02  0.509E-02
  -3.610  0.104E-01  0.198E-03  0.508E-02  0.508E-02
  -3.600  0.103E-01  0.204E-03  0.506E-02  0.506E-02
  -3.590  0.103E-01  0.210E-03  0.503E-02  0.503E-02
  -3.580  0.102E-01  0.215E-03  0.499E-02  0.499E-02
  -3.570  0.101E-01  0.220E-03  0.494E-02  0.494E-02
  -3.560  0.999E-02  0.224E-03  0.488E-02  0.488E-02
  -3.550  0.985E-02  0.228E-03  0.481E-02  0.481E-02
  -3.540  0.969E-02  0.231E-03  0.473E-02  0.473E-02
  -3.530  0.952E-02  0.233E-03  0.464E-02  0.464E-02
  -3.520  0.933E-02  0.234E-03  0.455E-02  0.455E-02
  -3.510  0.913E-02  0.235E-03  0.445E-02  0.445E-02
  -3.500  0.892E-02  0.235E-03  0.434E-02  0.434E-02
  -3.490  0.871E-02  0.234E-03  0.424E-02  0.424E-02
  -3.480  0.850E-02  0.232E-03  0.413E-02  0.413E-02
  -3.470  0.830E-02  0.231E-03  0.404E-02  0.404E-02
  -3.460  0.812E-02  0.229E-03  0.395E-02  0.395E-02
  -3.450  0.796E-02  0.227E-03  0.387E-02  0.387E-02
  -3.440  0.782E-02  0.225E-03  0.380E-02  0.380E-02
  -3.430  0.770E-02  0.223E-03  0.374E-02  0.374E-02
  -3.420  0.762E-02  0.222E-03  0.370E-02  0.370E-02
  -3.410  0.755E-02  0.221E-03  0.367E-02  0.367E-02
  -3.400  0.752E-02  0.221E-03  0.365E-02  0.365E-02
  -3.390  0.750E-02  0.221E-03  0.364E-02  0.364E-02
  -3.380  0.751E-02  0.223E-03  0.364E-02  0.364E-02
  -3.370  0.752E-02  0.225E-03  0.365E-02  0.365E-02
  -3.360  0.754E-02  0.229E-03  0.366E-02  0.366E-02
  -3.350  0.757E-02  0.233E-03  0.367E-02  0.367E-02
  -3.340  0.758E-02  0.238E-03  0.367E-02  0.367E-02
  -3.330  0.758E-02  0.245E-03  0.367E-02  0.367E-02
  -3.320  0.756E-02  0.252E-03  0.366E-02  0.366E-02
  -3.310  0.752E-02  0.260E-03  0.363E-02  0.363E-02
  -3.300  0.746E-02  0.269E-03  0.360E-02  0.360E-02
  -3.290  0.737E-02  0.278E-03  0.355E-02  0.355E-02
  -3.280  0.726E-02  0.288E-03  0.349E-02  0.349E-02
  -3.270  0.713E-02  0.298E-03  0.342E-02  0.342E-02
  -3.260  0.699E-02  0.307E-03  0.334E-02  0.334E-02
  -3.250  0.683E-02  0.317E-03  0.326E-02  0.326E-02
  -3.240  0.666E-02  0.325E-03  0.317E-02  0.317E-02
  -3.230  0.650E-02  0.333E-03  0.308E-02  0.308E-02
  -3.220  0.634E-02  0.340E-03  0.300E-02  0.300E-02
  -3.210  0.620E-02  0.346E-03  0.293E-02  0.293E-02
  -3.200  0.607E-02  0.350E-03  0.286E-02  0.286E-02
  -3.190  0.597E-02  0.351E-03  0.281E-02  0.281E-02
  -3.180  0.588E-02  0.351E-03  0.277E-02  0.277E-02
  -3.170  0.582E-02  0.349E-03  0.274E-02  0.274E-02
  -3.160  0.579E-02  0.345E-03  0.272E-02  0.272E-02
  -3.150  0.577E-02  0.338E-03  0.272E-02  0.272E-02
  -3.140  0.577E-02  0.330E-03  0.272E-02  0.272E-02
  -3.130  0.578E-02  0.319E-03  0.273E-02  0.273E-02
  -3.120  0.580E-02  0.306E-03  0.275E-02  0.275E-02
  -3.110  0.582E-02  0.292E-03  0.276E-02  0.276E-02
  -3.100  0.583E-02  0.276E-03  0.278E-02  0.278E-02
  -3.090  0.583E-02  0.258E-03  0.279E-02  0.279E-02
  -3.080  0.582E-02  0.240E-03  0.279E-02  0.279E-02
  -3.070  0.579E-02  0.222E-03  0.278E-02  0.278E-02
  -3.060  0.574E-02  0.203E-03  0.277E-02  0.277E-02
  -3.050  0.567E-02  0.184E-03  0.274E-02  0.274E-02
  -3.040  0.558E-02  0.165E-03  0.271E-02  0.271E-02
  -3.030  0.549E-02  0.147E-03  0.267E-02  0.267E-02
  -3.020  0.538E-02  0.130E-03  0.262E-02  0.262E-02
  -3.010  0.527E-02  0.114E-03  0.258E-02  0.258E-02
  -3.000  0.516E-02  0.991E-04  0.253E-02  0.253E-02
  -2.990  0.506E-02  0.853E-04  0.249E-02  0.249E-02
  -2.980  0.498E-02  0.728E-04  0.245E-02  0.245E-02
  -2.970  0.492E-02  0.615E-04  0.243E-02  0.243E-02
  -2.960  0.488E-02  0.516E-04  0.242E-02  0.242E-02
  -2.950  0.488E-02  0.428E-04  0.242E-02  0.242E-02
  -2.940  0.491E-02  0.353E-04  0.244E-02  0.244E-02
  -2.930  0.498E-02  0.288E-04  0.247E-02  0.247E-02
  -2.920  0.508E-02  0.234E-04  0.253E-02  0.253E-02
  -2.910  0.520E-02  0.188E-04  0.259E-02  0.259E-02
  -2.900  0.535E-02  0.150E-04  0.267E-02  0.267E-02
  -2.890  0.552E-02  0.119E-04  0.275E-02  0.275E-02
  -2.880  0.569E-02  0.943E-05  0.284E-02  0.284E-02
  -2.870  0.587E-02  0.742E-05  0.293E-02  0.293E-02
  -2.860  0.604E-02  0.584E-05  0.302E-02  0.302E-02
  -2.850  0.620E-02  0.460E-05  0.310E-02  0.310E-02
  -2.840  0.633E-02  0.365E-05  0.316E-02  0.316E-02
  -2.830  0.643E-02  0.294E-05  0.321E-02  0.321E-02
  -2.820  0.649E-02  0.243E-05  0.324E-02  0.324E-02
  -2.810  0.651E-02  0.209E-05  0.325E-02  0.325E-02
  -2.800  0.648E-02  0.189E-05  0.324E-02  0.324E-02
  -2.790  0.640E-02  0.184E-05  0.320E-02  0.320E-02
  -2.780  0.627E-02  0.194E-05  0.314E-02  0.314E-02
  -2.770  0.610E-02  0.219E-05  0.305E-02  0.305E-02
  -2.760  0.589E-02  0.261E-05  0.294E-02  0.294E-02
  -2.750  0.564E-02  0.325E-05  0.282E-02  0.282E-02
  -2.740  0.536E-02  0.414E-05  0.268E-02  0.268E-02
  -2.730  0.506E-02  0.533E-05  0.253E-02  0.253E-02
  -2.720  0.476E-02  0.689E-05  0.237E-02  0.237E-02
  -2.710  0.445E-02  0.889E-05  0.222E-02  0.222E-02
  -2.700  0.415E-02  0.114E-04  0.207E-02  0.207E-02
  -2.690  0.387E-02  0.146E-04  0.193E-02  0.193E-02
  -2.680  0.361E-02  0.184E-04  0.180E-02  0.180E-02
  -2.670  0.339E-02  0.231E-04  0.169E-02  0.169E-02
  -2.660  0.321E-02  0.287E-04  0.159E-02  0.159E-02
  -2.650  0.308E-02  0.353E-04  0.152E-02  0.152E-02
  -2.640  0.300E-02  0.430E-04  0.148E-02  0.148E-02
  -2.630  0.296E-02  0.519E-04  0.146E-02  0.146E-02
  -2.620  0.298E-02  0.619E-04  0.146E-02  0.146E-02
  -2.610  0.305E-02  0.732E-04  0.149E-02  0.149E-02
  -2.600  0.317E-02  0.857E-04  0.154E-02  0.154E-02
  -2.590  0.332E-02  0.993E-04  0.161E-02  0.161E-02
  -2.580  0.351E-02  0.114E-03  0.170E-02  0.170E-02
  -2.570  0.373E-02  0.130E-03  0.180E-02  0.180E-02
  -2.560  0.396E-02  0.146E-03  0.191E-02  0.191E-02
  -2.550  0.421E-02  0.163E-03  0.202E-02  0.202E-02
  -2.540  0.445E-02  0.180E-03  0.213E-02  0.213E-02
  -2.530  0.468E-02  0.197E-03  0.224E-02  0.224E-02
  -2.520  0.490E-02  0.214E-03  0.234E-02  0.234E-02
  -2.510  0.508E-02  0.230E-03  0.243E-02  0.243E-02
  -2.500  0.523E-02  0.246E-03  0.249E-02  0.249E-02
  -2.490  0.534E-02  0.260E-03  0.254E-02  0.254E-02
  -2.480  0.541E-02  0.273E-03  0.257E-02  0.257E-02
  -2.470  0.543E-02  0.284E-03  0.257E-02  0.257E-02
  -2.460  0.540E-02  0.293E-03  0.255E-02  0.255E-02
  -2.450  0.533E-02  0.300E-03  0.251E-02  0.251E-02
  -2.440  0.522E-02  0.305E-03  0.246E-02  0.246E-02
  -2.430  0.507E-02  0.308E-03  0.238E-02  0.238E-02
  -2.420  0.489E-02  0.309E-03  0.229E-02  0.229E-02
  -2.410  0.470E-02  0.308E-03  0.219E-02  0.219E-02
  -2.400  0.449E-02  0.304E-03  0.209E-02  0.209E-02
  -2.390  0.427E-02  0.299E-03  0.199E-02  0.199E-02
  -2.380  0.406E-02  0.292E-03  0.188E-02  0.188E-02
  -2.370  0.386E-02  0.283E-03  0.179E-02  0.179E-02
  -2.360  0.369E-02  0.272E-03  0.171E-02  0.171E-02
  -2.350  0.353E-02  0.261E-03  0.164E-02  0.164E-02
  -2.340  0.342E-02  0.248E-03  0.158E-02  0.158E-02
  -2.330  0.334E-02  0.234E-03  0.155E-02  0.155E-02
  -2.320  0.329E-02  0.220E-03  0.154E-02  0.154E-02
  -2.310  0.329E-02  0.206E-03  0.154E-02  0.154E-02
  -2.300  0.333E-02  0.191E-03  0.157E-02  0.157E-02
  -2.290  0.342E-02  0.176E-03  0.162E-02  0.162E-02
  -2.280  0.354E-02  0.162E-03  0.169E-02  0.169E-02
  -2.270  0.369E-02  0.148E-03  0.177E-02  0.177E-02
  -2.260  0.387E-02  0.135E-03  0.187E-02  0.187E-02
  -2.250  0.408E-02  0.123E-03  0.198E-02  0.198E-02
  -2.240  0.430E-02  0.112E-03  0.210E-02  0.210E-02
  -2.230  0.454E-02  0.102E-03  0.222E-02  0.222E-02
  -2.220  0.477E-02  0.935E-04  0.234E-02  0.234E-02
  -2.210  0.500E-02  0.860E-04  0.246E-02  0.246E-02
  -2.200  0.522E-02  0.796E-04  0.257E-02  0.257E-02
  -2.190  0.542E-02  0.744E-04  0.267E-02  0.267E-02
  -2.180  0.558E-02  0.703E-04  0.276E-02  0.276E-02
  -2.170  0.572E-02  0.672E-04  0.283E-02  0.283E-02
  -2.160  0.582E-02  0.649E-04  0.288E-02  0.288E-02
  -2.150  0.587E-02  0.635E-04  0.290E-02  0.290E-02
  -2.140  0.588E-02  0.627E-04  0.291E-02  0.291E-02
  -2.130  0.584E-02  0.623E-04  0.289E-02  0.289E-02
  -2.120  0.576E-02  0.624E-04  0.285E-02  0.285E-02
  -2.110  0.563E-02  0.626E-04  0.279E-02  0.279E-02
  -2.100  0.547E-02  0.629E-04  0.270E-02  0.270E-02
  -2.090  0.527E-02  0.632E-04  0.260E-02  0.260E-02
  -2.080  0.504E-02  0.634E-04  0.249E-02  0.249E-02
  -2.070  0.479E-02  0.634E-04  0.236E-02  0.236E-02
  -2.060  0.453E-02  0.631E-04  0.223E-02  0.223E-02
  -2.050  0.426E-02  0.625E-04  0.210E-02  0.210E-02
  -2.040  0.398E-02  0.616E-04  0.196E-02  0.196E-02
  -2.030  0.372E-02  0.603E-04  0.183E-02  0.183E-02
  -2.020  0.347E-02  0.587E-04  0.171E-02  0.171E-02
  -2.010  0.325E-02  0.568E-04  0.160E-02  0.160E-02
  -2.000  0.305E-02  0.546E-04  0.150E-02  0.150E-02
  -1.990  0.289E-02  0.521E-04  0.142E-02  0.142E-02
  -1.980  0.276E-02  0.495E-04  0.136E-02  0.136E-02
  -1.970  0.268E-02  0.466E-04  0.132E-02  0.132E-02
  -1.960  0.263E-02  0.437E-04  0.130E-02  0.130E-02
  -1.950  0.263E-02  0.407E-04  0.130E-02  0.130E-02
  -1.940  0.267E-02  0.378E-04  0.132E-02  0.132E-02
  -1.930  0.275E-02  0.349E-04  0.136E-02  0.136E-02
  -1.920  0.286E-02  0.321E-04  0.141E-02  0.141E-02
  -1.910  0.300E-02  0.295E-04  0.149E-02  0.149E-02
  -1.900  0.317E-02  0.271E-04  0.157E-02  0.157E-02
  -1.890  0.335E-02  0.249E-04  0.166E-02  0.166E-02
  -1.880  0.354E-02  0.229E-04  0.176E-02  0.176E-02
  -1.870  0.374E-02  0.213E-04  0.186E-02  0.186E-02
  -1.860  0.393E-02  0.199E-04  0.195E-02  0.195E-02
  -1.850  0.410E-02  0.188E-04  0.204E-02  0.204E-02
  -1.840  0.426E-02  0.179E-04  0.212E-02  0.212E-02
  -1.830  0.439E-02  0.173E-04  0.219E-02  0.219E-02
  -1.820  0.449E-02  0.169E-04  0.224E-02  0.224E-02
  -1.810  0.456E-02  0.167E-04  0.227E-02  0.227E-02
  -1.800  0.459E-02  0.167E-04  0.229E-02  0.229E-02
  -1.790  0.459E-02  0.168E-04  0.229E-02  0.229E-02
  -1.780  0.456E-02  0.169E-04  0.227E-02  0.227E-02
  -1.770  0.449E-02  0.172E-04  0.224E-02  0.224E-02
  -1.760  0.440E-02  0.174E-04  0.219E-02  0.219E-02
  -1.750  0.428E-02  0.177E-04  0.213E-02  0.213E-02
  -1.740  0.415E-02  0.180E-04  0.207E-02  0.207E-02
  -1.730  0.401E-02  0.183E-04  0.199E-02  0.199E-02
  -1.720  0.386E-02  0.185E-04  0.192E-02  0.192E-02
  -1.710  0.370E-02  0.187E-04  0.184E-02  0.184E-02
  -1.700  0.356E-02  0.189E-04  0.177E-02  0.177E-02
  -1.690  0.342E-02  0.190E-04  0.170E-02  0.170E-02
  -1.680  0.330E-02  0.191E-04  0.164E-02  0.164E-02
  -1.670  0.319E-02  0.192E-04  0.159E-02  0.159E-02
  -1.660  0.311E-02  0.193E-04  0.154E-02  0.154E-02
  -1.650  0.304E-02  0.193E-04  0.151E-02  0.151E-02
  -1.640  0.300E-02  0.193E-04  0.149E-02  0.149E-02
  -1.630  0.298E-02  0.193E-04  0.148E-02  0.148E-02
  -1.620  0.298E-02  0.192E-04  0.148E-02  0.148E-02
  -1.610  0.301E-02  0.191E-04  0.149E-02  0.149E-02
  -1.600  0.305E-02  0.189E-04  0.152E-02  0.152E-02
  -1.590  0.312E-02  0.187E-04  0.155E-02  0.155E-02
  -1.580  0.321E-02  0.185E-04  0.160E-02  0.160E-02
  -1.570  0.332E-02  0.182E-04  0.165E-02  0.165E-02
  -1.560  0.344E-02  0.178E-04  0.171E-02  0.171E-02
  -1.550  0.357E-02  0.175E-04  0.178E-02  0.178E-02
  -1.540  0.371E-02  0.170E-04  0.185E-02  0.185E-02
  -1.530  0.386E-02  0.166E-04  0.192E-02  0.192E-02
  -1.520  0.400E-02  0.161E-04  0.199E-02  0.199E-02
  -1.510  0.414E-02  0.157E-04  0.206E-02  0.206E-02
  -1.500  0.427E-02  0.153E-04  0.213E-02  0.213E-02
  -1.490  0.438E-02  0.150E-04  0.218E-02  0.218E-02
  -1.480  0.448E-02  0.147E-04  0.223E-02  0.223E-02
  -1.470  0.455E-02  0.146E-04  0.227E-02  0.227E-02
  -1.460  0.460E-02  0.146E-04  0.229E-02  0.229E-02
  -1.450  0.461E-02  0.146E-04  0.230E-02  0.230E-02
  -1.440  0.460E-02  0.149E-04  0.229E-02  0.229E-02
  -1.430  0.456E-02  0.152E-04  0.227E-02  0.227E-02
  -1.420  0.448E-02  0.157E-04  0.223E-02  0.223E-02
  -1.410  0.438E-02  0.163E-04  0.218E-02  0.218E-02
  -1.400  0.425E-02  0.169E-04  0.212E-02  0.212E-02
  -1.390  0.410E-02  0.176E-04  0.204E-02  0.204E-02
  -1.380  0.394E-02  0.183E-04  0.196E-02  0.196E-02
  -1.370  0.376E-02  0.190E-04  0.187E-02  0.187E-02
  -1.360  0.357E-02  0.197E-04  0.177E-02  0.177E-02
  -1.350  0.338E-02  0.203E-04  0.168E-02  0.168E-02
  -1.340  0.319E-02  0.207E-04  0.159E-02  0.159E-02
  -1.330  0.302E-02  0.211E-04  0.150E-02  0.150E-02
  -1.320  0.285E-02  0.212E-04  0.141E-02  0.141E-02
  -1.310  0.270E-02  0.212E-04  0.134E-02  0.134E-02
  -1.300  0.257E-02  0.210E-04  0.128E-02  0.128E-02
  -1.290  0.247E-02  0.206E-04  0.122E-02  0.122E-02
  -1.280  0.239E-02  0.201E-04  0.118E-02  0.118E-02
  -1.270  0.234E-02  0.194E-04  0.116E-02  0.116E-02
  -1.260  0.231E-02  0.186E-04  0.115E-02  0.115E-02
  -1.250  0.232E-02  0.177E-04  0.115E-02  0.115E-02
  -1.240  0.235E-02  0.167E-04  0.117E-02  0.117E-02
  -1.230  0.241E-02  0.158E-04  0.120E-02  0.120E-02
  -1.220  0.250E-02  0.148E-04  0.124E-02  0.124E-02
  -1.210  0.261E-02  0.139E-04  0.130E-02  0.130E-02
  -1.200  0.275E-02  0.132E-04  0.137E-02  0.137E-02
  -1.190  0.290E-02  0.125E-04  0.144E-02  0.144E-02
  -1.180  0.307E-02  0.121E-04  0.153E-02  0.153E-02
  -1.170  0.324E-02  0.118E-04  0.162E-02  0.162E-02
  -1.160  0.342E-02  0.118E-04  0.171E-02  0.171E-02
  -1.150  0.360E-02  0.120E-04  0.179E-02  0.179E-02
  -1.140  0.377E-02  0.125E-04  0.188E-02  0.188E-02
  -1.130  0.394E-02  0.132E-04  0.196E-02  0.196E-02
  -1.120  0.408E-02  0.142E-04  0.203E-02  0.203E-02
  -1.110  0.420E-02  0.153E-04  0.209E-02  0.209E-02
  -1.100  0.430E-02  0.167E-04  0.214E-02  0.214E-02
  -1.090  0.437E-02  0.182E-04  0.218E-02  0.218E-02
  -1.080  0.441E-02  0.198E-04  0.220E-02  0.220E-02
  -1.070  0.442E-02  0.216E-04  0.220E-02  0.220E-02
  -1.060  0.440E-02  0.233E-04  0.219E-02  0.219E-02
  -1.050  0.435E-02  0.250E-04  0.216E-02  0.216E-02
  -1.040  0.426E-02  0.266E-04  0.212E-02  0.212E-02
  -1.030  0.416E-02  0.280E-04  0.206E-02  0.206E-02
  -1.020  0.403E-02  0.293E-04  0.200E-02  0.200E-02
  -1.010  0.388E-02  0.303E-04  0.192E-02  0.192E-02
  -1.000  0.372E-02  0.311E-04  0.184E-02  0.184E-02
  -0.990  0.355E-02  0.316E-04  0.176E-02  0.176E-02
  -0.980  0.337E-02  0.317E-04  0.167E-02  0.167E-02
  -0.970  0.319E-02  0.315E-04  0.158E-02  0.158E-02
  -0.960  0.302E-02  0.310E-04  0.149E-02  0.149E-02
  -0.950  0.285E-02  0.302E-04  0.141E-02  0.141E-02
  -0.940  0.270E-02  0.291E-04  0.133E-02  0.133E-02
  -0.930  0.256E-02  0.278E-04  0.126E-02  0.126E-02
  -0.920  0.244E-02  0.263E-04  0.120E-02  0.120E-02
  -0.910  0.233E-02  0.246E-04  0.115E-02  0.115E-02
  -0.900  0.225E-02  0.229E-04  0.112E-02  0.112E-02
  -0.890  0.220E-02  0.211E-04  0.109E-02  0.109E-02
  -0.880  0.217E-02  0.194E-04  0.108E-02  0.108E-02
  -0.870  0.217E-02  0.177E-04  0.108E-02  0.108E-02
  -0.860  0.220E-02  0.162E-04  0.109E-02  0.109E-02
  -0.850  0.225E-02  0.149E-04  0.112E-02  0.112E-02
  -0.840  0.233E-02  0.137E-04  0.116E-02  0.116E-02
  -0.830  0.243E-02  0.129E-04  0.121E-02  0.121E-02
  -0.820  0.256E-02  0.123E-04  0.127E-02  0.127E-02
  -0.810  0.271E-02  0.121E-04  0.135E-02  0.135E-02
  -0.800  0.287E-02  0.122E-04  0.143E-02  0.143E-02
  -0.790  0.304E-02  0.127E-04  0.151E-02  0.151E-02
  -0.780  0.322E-02  0.135E-04  0.160E-02  0.160E-02
  -0.770  0.339E-02  0.146E-04  0.169E-02  0.169E-02
  -0.760  0.356E-02  0.161E-04  0.177E-02  0.177E-02
  -0.750  0.372E-02  0.179E-04  0.185E-02  0.185E-02
  -0.740  0.386E-02  0.200E-04  0.192E-02  0.192E-02
  -0.730  0.397E-02  0.224E-04  0.197E-02  0.197E-02
  -0.720  0.406E-02  0.249E-04  0.202E-02  0.202E-02
  -0.710  0.412E-02  0.276E-04  0.205E-02  0.205E-02
  -0.700  0.414E-02  0.304E-04  0.206E-02  0.206E-02
  -0.690  0.414E-02  0.332E-04  0.205E-02  0.205E-02
  -0.680  0.409E-02  0.359E-04  0.203E-02  0.203E-02
  -0.670  0.402E-02  0.385E-04  0.199E-02  0.199E-02
  -0.660  0.391E-02  0.409E-04  0.194E-02  0.194E-02
  -0.650  0.378E-02  0.430E-04  0.187E-02  0.187E-02
  -0.640  0.363E-02  0.447E-04  0.179E-02  0.179E-02
  -0.630  0.346E-02  0.461E-04  0.171E-02  0.171E-02
  -0.620  0.327E-02  0.470E-04  0.161E-02  0.161E-02
  -0.610  0.308E-02  0.475E-04  0.152E-02  0.152E-02
  -0.600  0.288E-02  0.474E-04  0.142E-02  0.142E-02
  -0.590  0.269E-02  0.470E-04  0.132E-02  0.132E-02
  -0.580  0.250E-02  0.460E-04  0.123E-02  0.123E-02
  -0.570  0.232E-02  0.447E-04  0.114E-02  0.114E-02
  -0.560  0.216E-02  0.429E-04  0.106E-02  0.106E-02
  -0.550  0.201E-02  0.409E-04  0.986E-03  0.986E-03
  -0.540  0.189E-02  0.385E-04  0.925E-03  0.925E-03
  -0.530  0.179E-02  0.360E-04  0.876E-03  0.876E-03
  -0.520  0.171E-02  0.334E-04  0.840E-03  0.840E-03
  -0.510  0.167E-02  0.308E-04  0.817E-03  0.817E-03
  -0.500  0.165E-02  0.282E-04  0.809E-03  0.809E-03
  -0.490  0.165E-02  0.257E-04  0.814E-03  0.814E-03
  -0.480  0.169E-02  0.233E-04  0.834E-03  0.834E-03
  -0.470  0.176E-02  0.212E-04  0.867E-03  0.867E-03
  -0.460  0.185E-02  0.194E-04  0.914E-03  0.914E-03
  -0.450  0.196E-02  0.179E-04  0.973E-03  0.973E-03
  -0.440  0.210E-02  0.167E-04  0.104E-02  0.104E-02
  -0.430  0.226E-02  0.159E-04  0.112E-02  0.112E-02
  -0.420  0.243E-02  0.156E-04  0.121E-02  0.121E-02
  -0.410  0.262E-02  0.157E-04  0.130E-02  0.130E-02
  -0.400  0.280E-02  0.162E-04  0.139E-02  0.139E-02
  -0.390  0.299E-02  0.171E-04  0.149E-02  0.149E-02
  -0.380  0.318E-02  0.184E-04  0.158E-02  0.158E-02
  -0.370  0.336E-02  0.202E-04  0.167E-02  0.167E-02
  -0.360  0.352E-02  0.223E-04  0.175E-02  0.175E-02
  -0.350  0.366E-02  0.247E-04  0.182E-02  0.182E-02
  -0.340  0.377E-02  0.274E-04  0.187E-02  0.187E-02
  -0.330  0.386E-02  0.303E-04  0.192E-02  0.192E-02
  -0.320  0.392E-02  0.334E-04  0.194E-02  0.194E-02
  -0.310  0.395E-02  0.366E-04  0.196E-02  0.196E-02
  -0.300  0.395E-02  0.398E-04  0.195E-02  0.195E-02
  -0.290  0.391E-02  0.429E-04  0.193E-02  0.193E-02
  -0.280  0.384E-02  0.459E-04  0.190E-02  0.190E-02
  -0.270  0.375E-02  0.486E-04  0.185E-02  0.185E-02
  -0.260  0.363E-02  0.511E-04  0.179E-02  0.179E-02
  -0.250  0.349E-02  0.532E-04  0.172E-02  0.172E-02
  -0.240  0.333E-02  0.548E-04  0.164E-02  0.164E-02
  -0.230  0.316E-02  0.560E-04  0.155E-02  0.155E-02
  -0.220  0.298E-02  0.568E-04  0.146E-02  0.146E-02
  -0.210  0.280E-02  0.570E-04  0.137E-02  0.137E-02
  -0.200  0.261E-02  0.568E-04  0.128E-02  0.128E-02
  -0.190  0.244E-02  0.561E-04  0.119E-02  0.119E-02
  -0.180  0.227E-02  0.549E-04  0.111E-02  0.111E-02
  -0.170  0.211E-02  0.534E-04  0.103E-02  0.103E-02
  -0.160  0.197E-02  0.516E-04  0.959E-03  0.959E-03
  -0.150  0.185E-02  0.494E-04  0.900E-03  0.900E-03
  -0.140  0.175E-02  0.471E-04  0.851E-03  0.851E-03
  -0.130  0.167E-02  0.447E-04  0.815E-03  0.815E-03
  -0.120  0.162E-02  0.422E-04  0.791E-03  0.791E-03
  -0.110  0.160E-02  0.396E-04  0.780E-03  0.780E-03
  -0.100  0.160E-02  0.372E-04  0.782E-03  0.782E-03
  -0.090  0.163E-02  0.349E-04  0.797E-03  0.797E-03
  -0.080  0.168E-02  0.328E-04  0.825E-03  0.825E-03
  -0.070  0.176E-02  0.309E-04  0.864E-03  0.864E-03
  -0.060  0.186E-02  0.292E-04  0.914E-03  0.914E-03
  -0.050  0.197E-02  0.279E-04  0.973E-03  0.973E-03
  -0.040  0.210E-02  0.269E-04  0.104E-02  0.104E-02
  -0.030  0.225E-02  0.262E-04  0.111E-02  0.111E-02
  -0.020  0.239E-02  0.259E-04  0.118E-02  0.118E-02
  -0.010  0.254E-02  0.259E-04  0.126E-02  0.126E-02
   0.000  0.268E-02  0.262E-04  0.133E-02  0.133E-02
   0.010  0.282E-02  0.269E-04  0.140E-02  0.140E-02
   0.020  0.294E-02  0.279E-04  0.146E-02  0.146E-02
   0.030  0.304E-02  0.292E-04  0.151E-02  0.151E-02
   0.040  0.312E-02  0.307E-04  0.155E-02  0.155E-02
   0.050  0.318E-02  0.325E-04  0.157E-02  0.157E-02
   0.060  0.321E-02  0.344E-04  0.159E-02  0.159E-02
   0.070  0.321E-02  0.365E-04  0.159E-02  0.159E-02
   0.080  0.319E-02  0.387E-04  0.157E-02  0.157E-02
   0.090  0.314E-02  0.410E-04  0.155E-02  0.155E-02
   0.100  0.306E-02  0.433E-04  0.151E-02  0.151E-02
   0.110  0.297E-02  0.456E-04  0.146E-02  0.146E-02
   0.120  0.286E-02  0.478E-04  0.141E-02  0.141E-02
   0.130  0.274E-02  0.499E-04  0.134E-02  0.134E-02
   0.140  0.261E-02  0.518E-04  0.128E-02  0.128E-02
   0.150  0.247E-02  0.535E-04  0.121E-02  0.121E-02
   0.160  0.234E-02  0.549E-04  0.114E-02  0.114E-02
   0.170  0.221E-02  0.560E-04  0.108E-02  0.108E-02
   0.180  0.209E-02  0.568E-04  0.102E-02  0.102E-02
   0.190  0.198E-02  0.572E-04  0.962E-03  0.962E-03
   0.200  0.189E-02  0.573E-04  0.916E-03  0.916E-03
   0.210  0.182E-02  0.570E-04  0.880E-03  0.880E-03
   0.220  0.176E-02  0.563E-04  0.853E-03  0.853E-03
   0.230  0.173E-02  0.553E-04  0.838E-03  0.838E-03
   0.240  0.172E-02  0.540E-04  0.833E-03  0.833E-03
   0.250  0.173E-02  0.524E-04  0.840E-03  0.840E-03
   0.260  0.177E-02  0.506E-04  0.857E-03  0.857E-03
   0.270  0.182E-02  0.486E-04  0.886E-03  0.886E-03
   0.280  0.189E-02  0.465E-04  0.924E-03  0.924E-03
   0.290  0.199E-02  0.444E-04  0.971E-03  0.971E-03
   0.300  0.210E-02  0.423E-04  0.103E-02  0.103E-02
   0.310  0.222E-02  0.404E-04  0.109E-02  0.109E-02
   0.320  0.235E-02  0.385E-04  0.115E-02  0.115E-02
   0.330  0.249E-02  0.369E-04  0.122E-02  0.122E-02
   0.340  0.263E-02  0.355E-04  0.130E-02  0.130E-02
   0.350  0.277E-02  0.344E-04  0.137E-02  0.137E-02
   0.360  0.290E-02  0.336E-04  0.143E-02  0.143E-02
   0.370  0.302E-02  0.332E-04  0.150E-02  0.150E-02
   0.380  0.314E-02  0.331E-04  0.155E-02  0.155E-02
   0.390  0.323E-02  0.334E-04  0.160E-02  0.160E-02
   0.400  0.331E-02  0.341E-04  0.164E-02  0.164E-02
   0.410  0.336E-02  0.352E-04  0.166E-02  0.166E-02
   0.420  0.339E-02  0.365E-04  0.168E-02  0.168E-02
   0.430  0.340E-02  0.382E-04  0.168E-02  0.168E-02
   0.440  0.338E-02  0.401E-04  0.167E-02  0.167E-02
   0.450  0.334E-02  0.422E-04  0.165E-02  0.165E-02
   0.460  0.327E-02  0.445E-04  0.161E-02  0.161E-02
   0.470  0.319E-02  0.469E-04  0.157E-02  0.157E-02
   0.480  0.308E-02  0.493E-04  0.152E-02  0.152E-02
   0.490  0.296E-02  0.517E-04  0.146E-02  0.146E-02
   0.500  0.283E-02  0.539E-04  0.139E-02  0.139E-02
   0.510  0.269E-02  0.559E-04  0.132E-02  0.132E-02
   0.520  0.255E-02  0.577E-04  0.125E-02  0.125E-02
   0.530  0.240E-02  0.591E-04  0.117E-02  0.117E-02
   0.540  0.225E-02  0.602E-04  0.110E-02  0.110E-02
   0.550  0.211E-02  0.608E-04  0.102E-02  0.102E-02
   0.560  0.197E-02  0.610E-04  0.955E-03  0.955E-03
   0.570  0.184E-02  0.607E-04  0.889E-03  0.889E-03
   0.580  0.172E-02  0.599E-04  0.829E-03  0.829E-03
   0.590  0.161E-02  0.586E-04  0.774E-03  0.774E-03
   0.600  0.151E-02  0.570E-04  0.725E-03  0.725E-03
   0.610  0.142E-02  0.549E-04  0.682E-03  0.682E-03
   0.620  0.135E-02  0.526E-04  0.647E-03  0.647E-03
   0.630  0.129E-02  0.501E-04  0.619E-03  0.619E-03
   0.640  0.125E-02  0.474E-04  0.599E-03  0.599E-03
   0.650  0.122E-02  0.447E-04  0.588E-03  0.588E-03
   0.660  0.121E-02  0.421E-04  0.584E-03  0.584E-03
   0.670  0.122E-02  0.397E-04  0.589E-03  0.589E-03
   0.680  0.124E-02  0.375E-04  0.602E-03  0.602E-03
   0.690  0.128E-02  0.356E-04  0.622E-03  0.622E-03
   0.700  0.133E-02  0.342E-04  0.650E-03  0.650E-03
   0.710  0.140E-02  0.333E-04  0.685E-03  0.685E-03
   0.720  0.148E-02  0.330E-04  0.725E-03  0.725E-03
   0.730  0.157E-02  0.333E-04  0.771E-03  0.771E-03
   0.740  0.167E-02  0.342E-04  0.819E-03  0.819E-03
   0.750  0.177E-02  0.357E-04  0.869E-03  0.869E-03
   0.760  0.188E-02  0.378E-04  0.920E-03  0.920E-03
   0.770  0.198E-02  0.404E-04  0.969E-03  0.969E-03
   0.780  0.207E-02  0.436E-04  0.101E-02  0.101E-02
   0.790  0.216E-02  0.473E-04  0.106E-02  0.106E-02
   0.800  0.223E-02  0.513E-04  0.109E-02  0.109E-02
   0.810  0.229E-02  0.555E-04  0.112E-02  0.112E-02
   0.820  0.233E-02  0.599E-04  0.114E-02  0.114E-02
   0.830  0.236E-02  0.643E-04  0.115E-02  0.115E-02
   0.840  0.237E-02  0.687E-04  0.115E-02  0.115E-02
   0.850  0.235E-02  0.728E-04  0.114E-02  0.114E-02
   0.860  0.232E-02  0.765E-04  0.112E-02  0.112E-02
   0.870  0.228E-02  0.798E-04  0.110E-02  0.110E-02
   0.880  0.222E-02  0.826E-04  0.107E-02  0.107E-02
   0.890  0.215E-02  0.847E-04  0.103E-02  0.103E-02
   0.900  0.206E-02  0.862E-04  0.989E-03  0.989E-03
   0.910  0.198E-02  0.869E-04  0.944E-03  0.944E-03
   0.920  0.188E-02  0.869E-04  0.898E-03  0.898E-03
   0.930  0.179E-02  0.863E-04  0.851E-03  0.851E-03
   0.940  0.170E-02  0.850E-04  0.806E-03  0.806E-03
   0.950  0.161E-02  0.831E-04  0.763E-03  0.763E-03
   0.960  0.153E-02  0.807E-04  0.724E-03  0.724E-03
   0.970  0.146E-02  0.780E-04  0.689E-03  0.689E-03
   0.980  0.139E-02  0.750E-04  0.659E-03  0.659E-03
   0.990  0.134E-02  0.719E-04  0.634E-03  0.634E-03
   1.000  0.130E-02  0.687E-04  0.616E-03  0.616E-03
   1.010  0.127E-02  0.656E-04  0.603E-03  0.603E-03
   1.020  0.126E-02  0.628E-04  0.597E-03  0.597E-03
   1.030  0.125E-02  0.602E-04  0.597E-03  0.597E-03
   1.040  0.126E-02  0.581E-04  0.602E-03  0.602E-03
   1.050  0.128E-02  0.563E-04  0.612E-03  0.612E-03
   1.060  0.131E-02  0.550E-04  0.627E-03  0.627E-03
   1.070  0.135E-02  0.543E-04  0.646E-03  0.646E-03
   1.080  0.139E-02  0.540E-04  0.668E-03  0.668E-03
   1.090  0.144E-02  0.542E-04  0.691E-03  0.691E-03
   1.100  0.148E-02  0.549E-04  0.715E-03  0.715E-03
   1.110  0.153E-02  0.560E-04  0.739E-03  0.739E-03
   1.120  0.158E-02  0.575E-04  0.761E-03  0.761E-03
   1.130  0.162E-02  0.592E-04  0.780E-03  0.780E-03
   1.140  0.165E-02  0.612E-04  0.796E-03  0.796E-03
   1.150  0.168E-02  0.633E-04  0.807E-03  0.807E-03
   1.160  0.169E-02  0.655E-04  0.813E-03  0.813E-03
   1.170  0.169E-02  0.676E-04  0.813E-03  0.813E-03
   1.180  0.168E-02  0.696E-04  0.807E-03  0.807E-03
   1.190  0.166E-02  0.715E-04  0.796E-03  0.796E-03
   1.200  0.163E-02  0.730E-04  0.779E-03  0.779E-03
   1.210  0.159E-02  0.743E-04  0.757E-03  0.757E-03
   1.220  0.154E-02  0.751E-04  0.730E-03  0.730E-03
   1.230  0.148E-02  0.756E-04  0.701E-03  0.701E-03
   1.240  0.141E-02  0.755E-04  0.669E-03  0.669E-03
   1.250  0.135E-02  0.750E-04  0.637E-03  0.637E-03
   1.260  0.128E-02  0.741E-04  0.605E-03  0.605E-03
   1.270  0.122E-02  0.728E-04  0.574E-03  0.574E-03
   1.280  0.116E-02  0.712E-04  0.547E-03  0.547E-03
   1.290  0.111E-02  0.693E-04  0.523E-03  0.523E-03
   1.300  0.107E-02  0.672E-04  0.503E-03  0.503E-03
   1.310  0.104E-02  0.651E-04  0.489E-03  0.489E-03
   1.320  0.102E-02  0.630E-04  0.480E-03  0.480E-03
   1.330  0.102E-02  0.611E-04  0.477E-03  0.477E-03
   1.340  0.102E-02  0.595E-04  0.480E-03  0.480E-03
   1.350  0.104E-02  0.583E-04  0.489E-03  0.489E-03
   1.360  0.106E-02  0.575E-04  0.503E-03  0.503E-03
   1.370  0.110E-02  0.573E-04  0.521E-03  0.521E-03
   1.380  0.115E-02  0.577E-04  0.544E-03  0.544E-03
   1.390  0.120E-02  0.587E-04  0.570E-03  0.570E-03
   1.400  0.126E-02  0.602E-04  0.598E-03  0.598E-03
   1.410  0.132E-02  0.624E-04  0.626E-03  0.626E-03
   1.420  0.138E-02  0.650E-04  0.655E-03  0.655E-03
   1.430  0.143E-02  0.679E-04  0.683E-03  0.683E-03
   1.440  0.149E-02  0.712E-04  0.709E-03  0.709E-03
   1.450  0.154E-02  0.746E-04  0.732E-03  0.732E-03
   1.460  0.158E-02  0.780E-04  0.750E-03  0.750E-03
   1.470  0.161E-02  0.813E-04  0.764E-03  0.764E-03
   1.480  0.163E-02  0.843E-04  0.773E-03  0.773E-03
   1.490  0.164E-02  0.869E-04  0.776E-03  0.776E-03
   1.500  0.163E-02  0.890E-04  0.772E-03  0.772E-03
   1.510  0.162E-02  0.906E-04  0.763E-03  0.763E-03
   1.520  0.159E-02  0.915E-04  0.748E-03  0.748E-03
   1.530  0.155E-02  0.917E-04  0.728E-03  0.728E-03
   1.540  0.150E-02  0.913E-04  0.703E-03  0.703E-03
   1.550  0.144E-02  0.903E-04  0.673E-03  0.673E-03
   1.560  0.137E-02  0.887E-04  0.641E-03  0.641E-03
   1.570  0.130E-02  0.867E-04  0.606E-03  0.606E-03
   1.580  0.122E-02  0.843E-04  0.570E-03  0.570E-03
   1.590  0.115E-02  0.817E-04  0.533E-03  0.533E-03
   1.600  0.107E-02  0.791E-04  0.498E-03  0.498E-03
   1.610  0.100E-02  0.764E-04  0.464E-03  0.464E-03
   1.620  0.938E-03  0.739E-04  0.432E-03  0.432E-03
   1.630  0.880E-03  0.717E-04  0.404E-03  0.404E-03
   1.640  0.830E-03  0.697E-04  0.380E-03  0.380E-03
   1.650  0.789E-03  0.682E-04  0.360E-03  0.360E-03
   1.660  0.758E-03  0.671E-04  0.346E-03  0.346E-03
   1.670  0.738E-03  0.664E-04  0.336E-03  0.336E-03
   1.680  0.728E-03  0.661E-04  0.331E-03  0.331E-03
   1.690  0.728E-03  0.663E-04  0.331E-03  0.331E-03
   1.700  0.738E-03  0.668E-04  0.335E-03  0.335E-03
   1.710  0.756E-03  0.676E-04  0.344E-03  0.344E-03
   1.720  0.781E-03  0.687E-04  0.356E-03  0.356E-03
   1.730  0.811E-03  0.701E-04  0.371E-03  0.371E-03
   1.740  0.846E-03  0.716E-04  0.387E-03  0.387E-03
   1.750  0.883E-03  0.732E-04  0.405E-03  0.405E-03
   1.760  0.921E-03  0.749E-04  0.423E-03  0.423E-03
   1.770  0.959E-03  0.768E-04  0.441E-03  0.441E-03
   1.780  0.993E-03  0.787E-04  0.457E-03  0.457E-03
   1.790  0.102E-02  0.807E-04  0.472E-03  0.472E-03
   1.800  0.105E-02  0.829E-04  0.483E-03  0.483E-03
   1.810  0.107E-02  0.852E-04  0.492E-03  0.492E-03
   1.820  0.108E-02  0.876E-04  0.497E-03  0.497E-03
   1.830  0.109E-02  0.903E-04  0.499E-03  0.499E-03
   1.840  0.109E-02  0.930E-04  0.497E-03  0.497E-03
   1.850  0.108E-02  0.960E-04  0.491E-03  0.491E-03
   1.860  0.106E-02  0.990E-04  0.483E-03  0.483E-03
   1.870  0.104E-02  0.102E-03  0.471E-03  0.471E-03
   1.880  0.102E-02  0.105E-03  0.458E-03  0.458E-03
   1.890  0.994E-03  0.108E-03  0.443E-03  0.443E-03
   1.900  0.964E-03  0.111E-03  0.426E-03  0.426E-03
   1.910  0.934E-03  0.114E-03  0.410E-03  0.410E-03
   1.920  0.904E-03  0.116E-03  0.394E-03  0.394E-03
   1.930  0.876E-03  0.118E-03  0.379E-03  0.379E-03
   1.940  0.849E-03  0.119E-03  0.365E-03  0.365E-03
   1.950  0.826E-03  0.120E-03  0.353E-03  0.353E-03
   1.960  0.807E-03  0.120E-03  0.343E-03  0.343E-03
   1.970  0.791E-03  0.119E-03  0.336E-03  0.336E-03
   1.980  0.779E-03  0.117E-03  0.331E-03  0.331E-03
   1.990  0.771E-03  0.115E-03  0.328E-03  0.328E-03
   2.000  0.767E-03  0.111E-03  0.328E-03  0.328E-03
   2.010  0.765E-03  0.107E-03  0.329E-03  0.329E-03
   2.020  0.766E-03  0.102E-03  0.332E-03  0.332E-03
   2.030  0.768E-03  0.968E-04  0.335E-03  0.335E-03
   2.040  0.770E-03  0.908E-04  0.340E-03  0.340E-03
   2.050  0.773E-03  0.845E-04  0.344E-03  0.344E-03
   2.060  0.775E-03  0.780E-04  0.348E-03  0.348E-03
   2.070  0.774E-03  0.713E-04  0.352E-03  0.352E-03
   2.080  0.772E-03  0.646E-04  0.354E-03  0.354E-03
   2.090  0.767E-03  0.580E-04  0.354E-03  0.354E-03
   2.100  0.759E-03  0.517E-04  0.354E-03  0.354E-03
   2.110  0.748E-03  0.457E-04  0.351E-03  0.351E-03
   2.120  0.734E-03  0.401E-04  0.347E-03  0.347E-03
   2.130  0.718E-03  0.348E-04  0.341E-03  0.341E-03
   2.140  0.699E-03  0.301E-04  0.335E-03  0.335E-03
   2.150  0.680E-03  0.258E-04  0.327E-03  0.327E-03
   2.160  0.660E-03  0.221E-04  0.319E-03  0.319E-03
   2.170  0.640E-03  0.188E-04  0.310E-03  0.310E-03
   2.180  0.620E-03  0.160E-04  0.302E-03  0.302E-03
   2.190  0.603E-03  0.136E-04  0.295E-03  0.295E-03
   2.200  0.588E-03  0.116E-04  0.288E-03  0.288E-03
   2.210  0.575E-03  0.997E-05  0.283E-03  0.283E-03
   2.220  0.566E-03  0.870E-05  0.279E-03  0.279E-03
   2.230  0.560E-03  0.774E-05  0.276E-03  0.276E-03
   2.240  0.557E-03  0.705E-05  0.275E-03  0.275E-03
   2.250  0.556E-03  0.660E-05  0.275E-03  0.275E-03
   2.260  0.558E-03  0.637E-05  0.276E-03  0.276E-03
   2.270  0.562E-03  0.633E-05  0.278E-03  0.278E-03
   2.280  0.567E-03  0.647E-05  0.280E-03  0.280E-03
   2.290  0.573E-03  0.677E-05  0.283E-03  0.283E-03
   2.300  0.579E-03  0.722E-05  0.286E-03  0.286E-03
   2.310  0.584E-03  0.781E-05  0.288E-03  0.288E-03
   2.320  0.587E-03  0.853E-05  0.289E-03  0.289E-03
   2.330  0.589E-03  0.939E-05  0.290E-03  0.290E-03
   2.340  0.589E-03  0.104E-04  0.289E-03  0.289E-03
   2.350  0.586E-03  0.115E-04  0.287E-03  0.287E-03
   2.360  0.580E-03  0.127E-04  0.284E-03  0.284E-03
   2.370  0.573E-03  0.141E-04  0.279E-03  0.279E-03
   2.380  0.563E-03  0.156E-04  0.274E-03  0.274E-03
   2.390  0.551E-03  0.173E-04  0.267E-03  0.267E-03
   2.400  0.537E-03  0.190E-04  0.259E-03  0.259E-03
   2.410  0.522E-03  0.210E-04  0.251E-03  0.251E-03
   2.420  0.507E-03  0.230E-04  0.242E-03  0.242E-03
   2.430  0.491E-03  0.252E-04  0.233E-03  0.233E-03
   2.440  0.475E-03  0.274E-04  0.224E-03  0.224E-03
   2.450  0.459E-03  0.298E-04  0.215E-03  0.215E-03
   2.460  0.443E-03  0.321E-04  0.206E-03  0.206E-03
   2.470  0.428E-03  0.345E-04  0.197E-03  0.197E-03
   2.480  0.414E-03  0.368E-04  0.189E-03  0.189E-03
   2.490  0.400E-03  0.390E-04  0.181E-03  0.181E-03
   2.500  0.387E-03  0.411E-04  0.173E-03  0.173E-03
   2.510  0.375E-03  0.430E-04  0.166E-03  0.166E-03
   2.520  0.362E-03  0.446E-04  0.159E-03  0.159E-03
   2.530  0.350E-03  0.459E-04  0.152E-03  0.152E-03
   2.540  0.337E-03  0.469E-04  0.145E-03  0.145E-03
   2.550  0.324E-03  0.474E-04  0.138E-03  0.138E-03
   2.560  0.311E-03  0.476E-04  0.132E-03  0.132E-03
   2.570  0.298E-03  0.474E-04  0.125E-03  0.125E-03
   2.580  0.284E-03  0.467E-04  0.119E-03  0.119E-03
   2.590  0.270E-03  0.456E-04  0.112E-03  0.112E-03
   2.600  0.256E-03  0.442E-04  0.106E-03  0.106E-03
   2.610  0.242E-03  0.425E-04  0.995E-04  0.995E-04
   2.620  0.227E-03  0.405E-04  0.932E-04  0.932E-04
   2.630  0.212E-03  0.383E-04  0.870E-04  0.870E-04
   2.640  0.198E-03  0.360E-04  0.809E-04  0.809E-04
   2.650  0.184E-03  0.336E-04  0.750E-04  0.750E-04
   2.660  0.170E-03  0.312E-04  0.693E-04  0.693E-04
   2.670  0.157E-03  0.288E-04  0.639E-04  0.639E-04
   2.680  0.144E-03  0.266E-04  0.588E-04  0.588E-04
   2.690  0.132E-03  0.245E-04  0.540E-04  0.540E-04
   2.700  0.122E-03  0.225E-04  0.495E-04  0.495E-04
   2.710  0.112E-03  0.208E-04  0.454E-04  0.454E-04
   2.720  0.102E-03  0.193E-04  0.416E-04  0.416E-04
   2.730  0.942E-04  0.179E-04  0.381E-04  0.381E-04
   2.740  0.869E-04  0.168E-04  0.351E-04  0.351E-04
   2.750  0.805E-04  0.158E-04  0.323E-04  0.323E-04
   2.760  0.748E-04  0.150E-04  0.299E-04  0.299E-04
   2.770  0.699E-04  0.143E-04  0.278E-04  0.278E-04
   2.780  0.656E-04  0.136E-04  0.260E-04  0.260E-04
   2.790  0.619E-04  0.131E-04  0.244E-04  0.244E-04
   2.800  0.586E-04  0.126E-04  0.230E-04  0.230E-04
   2.810  0.558E-04  0.121E-04  0.219E-04  0.219E-04
   2.820  0.533E-04  0.116E-04  0.209E-04  0.209E-04
   2.830  0.511E-04  0.111E-04  0.200E-04  0.200E-04
   2.840  0.491E-04  0.106E-04  0.193E-04  0.193E-04
   2.850  0.473E-04  0.101E-04  0.186E-04  0.186E-04
   2.860  0.457E-04  0.958E-05  0.180E-04  0.180E-04
   2.870  0.442E-04  0.906E-05  0.176E-04  0.176E-04
   2.880  0.428E-04  0.855E-05  0.171E-04  0.171E-04
   2.890  0.416E-04  0.809E-05  0.167E-04  0.167E-04
   2.900  0.405E-04  0.768E-05  0.164E-04  0.164E-04
   2.910  0.397E-04  0.736E-05  0.162E-04  0.162E-04
   2.920  0.391E-04  0.715E-05  0.160E-04  0.160E-04
   2.930  0.387E-04  0.709E-05  0.158E-04  0.158E-04
   2.940  0.387E-04  0.719E-05  0.157E-04  0.157E-04
   2.950  0.389E-04  0.750E-05  0.157E-04  0.157E-04
   2.960  0.396E-04  0.804E-05  0.158E-04  0.158E-04
   2.970  0.405E-04  0.883E-05  0.159E-04  0.159E-04
   2.980  0.419E-04  0.990E-05  0.160E-04  0.160E-04
   2.990  0.436E-04  0.113E-04  0.162E-04  0.162E-04
   3.000  0.456E-04  0.130E-04  0.163E-04  0.163E-04
   3.010  0.480E-04  0.150E-04  0.165E-04  0.165E-04
   3.020  0.507E-04  0.173E-04  0.167E-04  0.167E-04
   3.030  0.536E-04  0.199E-04  0.168E-04  0.168E-04
   3.040  0.568E-04  0.228E-04  0.170E-04  0.170E-04
   3.050  0.601E-04  0.260E-04  0.171E-04  0.171E-04
   3.060  0.636E-04  0.294E-04  0.171E-04  0.171E-04
   3.070  0.673E-04  0.330E-04  0.172E-04  0.172E-04
   3.080  0.711E-04  0.366E-04  0.172E-04  0.172E-04
   3.090  0.750E-04  0.403E-04  0.173E-04  0.173E-04
   3.100  0.790E-04  0.439E-04  0.176E-04  0.176E-04
   3.110  0.832E-04  0.473E-04  0.180E-04  0.180E-04
   3.120  0.877E-04  0.505E-04  0.186E-04  0.186E-04
   3.130  0.926E-04  0.534E-04  0.196E-04  0.196E-04
   3.140  0.981E-04  0.559E-04  0.211E-04  0.211E-04
   3.150  0.104E-03  0.579E-04  0.233E-04  0.233E-04
   3.160  0.112E-03  0.593E-04  0.262E-04  0.262E-04
   3.170  0.120E-03  0.602E-04  0.301E-04  0.301E-04
   3.180  0.131E-03  0.605E-04  0.352E-04  0.352E-04
   3.190  0.144E-03  0.602E-04  0.418E-04  0.418E-04
   3.200  0.159E-03  0.592E-04  0.500E-04  0.500E-04
   3.210  0.178E-03  0.577E-04  0.602E-04  0.602E-04
   3.220  0.201E-03  0.557E-04  0.727E-04  0.727E-04
   3.230  0.228E-03  0.532E-04  0.876E-04  0.876E-04
   3.240  0.261E-03  0.504E-04  0.105E-03  0.105E-03
   3.250  0.300E-03  0.472E-04  0.126E-03  0.126E-03
   3.260  0.344E-03  0.438E-04  0.150E-03  0.150E-03
   3.270  0.396E-03  0.402E-04  0.178E-03  0.178E-03
   3.280  0.455E-03  0.366E-04  0.209E-03  0.209E-03
   3.290  0.522E-03  0.330E-04  0.244E-03  0.244E-03
   3.300  0.596E-03  0.294E-04  0.283E-03  0.283E-03
   3.310  0.678E-03  0.260E-04  0.326E-03  0.326E-03
   3.320  0.767E-03  0.228E-04  0.372E-03  0.372E-03
   3.330  0.864E-03  0.198E-04  0.422E-03  0.422E-03
   3.340  0.966E-03  0.171E-04  0.475E-03  0.475E-03
   3.350  0.107E-02  0.146E-04  0.530E-03  0.530E-03
   3.360  0.119E-02  0.124E-04  0.587E-03  0.587E-03
   3.370  0.130E-02  0.105E-04  0.646E-03  0.646E-03
   3.380  0.142E-02  0.887E-05  0.705E-03  0.705E-03
   3.390  0.154E-02  0.747E-05  0.765E-03  0.765E-03
   3.400  0.165E-02  0.631E-05  0.823E-03  0.823E-03
   3.410  0.177E-02  0.538E-05  0.881E-03  0.881E-03
   3.420  0.188E-02  0.467E-05  0.936E-03  0.936E-03
   3.430  0.198E-02  0.416E-05  0.988E-03  0.988E-03
   3.440  0.207E-02  0.384E-05  0.104E-02  0.104E-02
   3.450  0.216E-02  0.369E-05  0.108E-02  0.108E-02
   3.460  0.224E-02  0.372E-05  0.112E-02  0.112E-02
   3.470  0.230E-02  0.391E-05  0.115E-02  0.115E-02
   3.480  0.235E-02  0.427E-05  0.117E-02  0.117E-02
   3.490  0.239E-02  0.479E-05  0.119E-02  0.119E-02
   3.500  0.241E-02  0.549E-05  0.120E-02  0.120E-02
   3.510  0.242E-02  0.635E-05  0.121E-02  0.121E-02
   3.520  0.241E-02  0.740E-05  0.120E-02  0.120E-02
   3.530  0.239E-02  0.863E-05  0.119E-02  0.119E-02
   3.540  0.235E-02  0.101E-04  0.117E-02  0.117E-02
   3.550  0.230E-02  0.117E-04  0.114E-02  0.114E-02
   3.560  0.224E-02  0.136E-04  0.111E-02  0.111E-02
   3.570  0.216E-02  0.156E-04  0.107E-02  0.107E-02
   3.580  0.207E-02  0.180E-04  0.103E-02  0.103E-02
   3.590  0.198E-02  0.206E-04  0.980E-03  0.980E-03
   3.600  0.188E-02  0.234E-04  0.929E-03  0.929E-03
   3.610  0.178E-02  0.265E-04  0.876E-03  0.876E-03
   3.620  0.168E-02  0.299E-04  0.824E-03  0.824E-03
   3.630  0.158E-02  0.336E-04  0.772E-03  0.772E-03
   3.640  0.148E-02  0.375E-04  0.722E-03  0.722E-03
   3.650  0.139E-02  0.417E-04  0.676E-03  0.676E-03
   3.660  0.131E-02  0.462E-04  0.634E-03  0.634E-03
   3.670  0.125E-02  0.509E-04  0.598E-03  0.598E-03
   3.680  0.119E-02  0.558E-04  0.567E-03  0.567E-03
   3.690  0.115E-02  0.608E-04  0.544E-03  0.544E-03
   3.700  0.112E-02  0.659E-04  0.527E-03  0.527E-03
   3.710  0.110E-02  0.710E-04  0.517E-03  0.517E-03
   3.720  0.110E-02  0.760E-04  0.513E-03  0.513E-03
   3.730  0.111E-02  0.809E-04  0.516E-03  0.516E-03
   3.740  0.113E-02  0.855E-04  0.524E-03  0.524E-03
   3.750  0.116E-02  0.897E-04  0.537E-03  0.537E-03
   3.760  0.120E-02  0.935E-04  0.554E-03  0.554E-03
   3.770  0.124E-02  0.967E-04  0.573E-03  0.573E-03
   3.780  0.129E-02  0.992E-04  0.594E-03  0.594E-03
   3.790  0.133E-02  0.101E-03  0.615E-03  0.615E-03
   3.800  0.137E-02  0.102E-03  0.635E-03  0.635E-03
   3.810  0.141E-02  0.103E-03  0.654E-03  0.654E-03
   3.820  0.144E-02  0.102E-03  0.670E-03  0.670E-03
   3.830  0.147E-02  0.101E-03  0.682E-03  0.682E-03
   3.840  0.148E-02  0.990E-04  0.691E-03  0.691E-03
   3.850  0.149E-02  0.964E-04  0.696E-03  0.696E-03
   3.860  0.149E-02  0.933E-04  0.696E-03  0.696E-03
   3.870  0.147E-02  0.897E-04  0.692E-03  0.692E-03
   3.880  0.145E-02  0.857E-04  0.684E-03  0.684E-03
   3.890  0.143E-02  0.815E-04  0.672E-03  0.672E-03
   3.900  0.139E-02  0.772E-04  0.657E-03  0.657E-03
   3.910  0.135E-02  0.729E-04  0.638E-03  0.638E-03
   3.920  0.130E-02  0.686E-04  0.617E-03  0.617E-03
   3.930  0.125E-02  0.645E-04  0.593E-03  0.593E-03
   3.940  0.120E-02  0.607E-04  0.568E-03  0.568E-03
   3.950  0.114E-02  0.571E-04  0.542E-03  0.542E-03
   3.960  0.108E-02  0.540E-04  0.515E-03  0.515E-03
   3.970  0.102E-02  0.512E-04  0.487E-03  0.487E-03
   3.980  0.967E-03  0.488E-04  0.459E-03  0.459E-03
   3.990  0.909E-03  0.468E-04  0.431E-03  0.431E-03
   4.000  0.853E-03  0.452E-04  0.404E-03  0.404E-03
   4.010  0.799E-03  0.440E-04  0.377E-03  0.377E-03
   4.020  0.747E-03  0.430E-04  0.352E-03  0.352E-03
   4.030  0.697E-03  0.424E-04  0.328E-03  0.328E-03
   4.040  0.652E-03  0.419E-04  0.305E-03  0.305E-03
   4.050  0.610E-03  0.416E-04  0.284E-03  0.284E-03
   4.060  0.573E-03  0.414E-04  0.266E-03  0.266E-03
   4.070  0.542E-03  0.412E-04  0.250E-03  0.250E-03
   4.080  0.516E-03  0.411E-04  0.238E-03  0.238E-03
   4.090  0.498E-03  0.409E-04  0.229E-03  0.229E-03
   4.100  0.487E-03  0.407E-04  0.223E-03  0.223E-03
   4.110  0.484E-03  0.404E-04  0.222E-03  0.222E-03
   4.120  0.489E-03  0.399E-04  0.225E-03  0.225E-03
   4.130  0.503E-03  0.394E-04  0.232E-03  0.232E-03
   4.140  0.525E-03  0.388E-04  0.243E-03  0.243E-03
   4.150  0.555E-03  0.380E-04  0.259E-03  0.259E-03
   4.160  0.593E-03  0.372E-04  0.278E-03  0.278E-03
   4.170  0.637E-03  0.364E-04  0.300E-03  0.300E-03
   4.180  0.687E-03  0.355E-04  0.326E-03  0.326E-03
   4.190  0.741E-03  0.347E-04  0.353E-03  0.353E-03
   4.200  0.797E-03  0.339E-04  0.382E-03  0.382E-03
   4.210  0.855E-03  0.333E-04  0.411E-03  0.411E-03
   4.220  0.911E-03  0.329E-04  0.439E-03  0.439E-03
   4.230  0.965E-03  0.326E-04  0.466E-03  0.466E-03
   4.240  0.101E-02  0.327E-04  0.491E-03  0.491E-03
   4.250  0.106E-02  0.330E-04  0.512E-03  0.512E-03
   4.260  0.109E-02  0.337E-04  0.529E-03  0.529E-03
   4.270  0.112E-02  0.347E-04  0.542E-03  0.542E-03
   4.280  0.113E-02  0.360E-04  0.549E-03  0.549E-03
   4.290  0.114E-02  0.377E-04  0.551E-03  0.551E-03
   4.300  0.113E-02  0.398E-04  0.547E-03  0.547E-03
   4.310  0.112E-02  0.422E-04  0.538E-03  0.538E-03
   4.320  0.109E-02  0.448E-04  0.524E-03  0.524E-03
   4.330  0.106E-02  0.477E-04  0.505E-03  0.505E-03
   4.340  0.102E-02  0.508E-04  0.483E-03  0.483E-03
   4.350  0.968E-03  0.539E-04  0.457E-03  0.457E-03
   4.360  0.915E-03  0.571E-04  0.429E-03  0.429E-03
   4.370  0.859E-03  0.603E-04  0.399E-03  0.399E-03
   4.380  0.802E-03  0.633E-04  0.369E-03  0.369E-03
   4.390  0.746E-03  0.662E-04  0.340E-03  0.340E-03
   4.400  0.691E-03  0.687E-04  0.311E-03  0.311E-03
   4.410  0.640E-03  0.710E-04  0.285E-03  0.285E-03
   4.420  0.593E-03  0.728E-04  0.260E-03  0.260E-03
   4.430  0.551E-03  0.742E-04  0.238E-03  0.238E-03
   4.440  0.515E-03  0.752E-04  0.220E-03  0.220E-03
   4.450  0.485E-03  0.757E-04  0.205E-03  0.205E-03
   4.460  0.460E-03  0.757E-04  0.192E-03  0.192E-03
   4.470  0.442E-03  0.752E-04  0.183E-03  0.183E-03
   4.480  0.428E-03  0.744E-04  0.177E-03  0.177E-03
   4.490  0.420E-03  0.731E-04  0.173E-03  0.173E-03
   4.500  0.415E-03  0.715E-04  0.172E-03  0.172E-03
   4.510  0.414E-03  0.696E-04  0.172E-03  0.172E-03
   4.520  0.416E-03  0.674E-04  0.174E-03  0.174E-03
   4.530  0.419E-03  0.650E-04  0.177E-03  0.177E-03
   4.540  0.424E-03  0.625E-04  0.181E-03  0.181E-03
   4.550  0.430E-03  0.599E-04  0.185E-03  0.185E-03
   4.560  0.436E-03  0.572E-04  0.189E-03  0.189E-03
   4.570  0.443E-03  0.544E-04  0.194E-03  0.194E-03
   4.580  0.450E-03  0.517E-04  0.199E-03  0.199E-03
   4.590  0.457E-03  0.490E-04  0.204E-03  0.204E-03
   4.600  0.466E-03  0.463E-04  0.210E-03  0.210E-03
   4.610  0.475E-03  0.436E-04  0.216E-03  0.216E-03
   4.620  0.485E-03  0.410E-04  0.222E-03  0.222E-03
   4.630  0.498E-03  0.385E-04  0.230E-03  0.230E-03
   4.640  0.513E-03  0.360E-04  0.238E-03  0.238E-03
   4.650  0.531E-03  0.337E-04  0.248E-03  0.248E-03
   4.660  0.551E-03  0.314E-04  0.260E-03  0.260E-03
   4.670  0.575E-03  0.292E-04  0.273E-03  0.273E-03
   4.680  0.603E-03  0.272E-04  0.288E-03  0.288E-03
   4.690  0.633E-03  0.253E-04  0.304E-03  0.304E-03
   4.700  0.665E-03  0.235E-04  0.321E-03  0.321E-03
   4.710  0.700E-03  0.219E-04  0.339E-03  0.339E-03
   4.720  0.735E-03  0.205E-04  0.357E-03  0.357E-03
   4.730  0.770E-03  0.193E-04  0.375E-03  0.375E-03
   4.740  0.804E-03  0.184E-04  0.393E-03  0.393E-03
   4.750  0.836E-03  0.178E-04  0.409E-03  0.409E-03
   4.760  0.863E-03  0.174E-04  0.423E-03  0.423E-03
   4.770  0.886E-03  0.174E-04  0.435E-03  0.435E-03
   4.780  0.904E-03  0.178E-04  0.443E-03  0.443E-03
   4.790  0.915E-03  0.185E-04  0.448E-03  0.448E-03
   4.800  0.918E-03  0.196E-04  0.449E-03  0.449E-03
   4.810  0.914E-03  0.212E-04  0.446E-03  0.446E-03
   4.820  0.902E-03  0.231E-04  0.440E-03  0.440E-03
   4.830  0.883E-03  0.256E-04  0.429E-03  0.429E-03
   4.840  0.857E-03  0.284E-04  0.414E-03  0.414E-03
   4.850  0.825E-03  0.317E-04  0.397E-03  0.397E-03
   4.860  0.787E-03  0.354E-04  0.376E-03  0.376E-03
   4.870  0.745E-03  0.394E-04  0.353E-03  0.353E-03
   4.880  0.700E-03  0.438E-04  0.328E-03  0.328E-03
   4.890  0.653E-03  0.484E-04  0.302E-03  0.302E-03
   4.900  0.604E-03  0.532E-04  0.276E-03  0.276E-03
   4.910  0.556E-03  0.580E-04  0.249E-03  0.249E-03
   4.920  0.509E-03  0.629E-04  0.223E-03  0.223E-03
   4.930  0.464E-03  0.677E-04  0.198E-03  0.198E-03
   4.940  0.421E-03  0.722E-04  0.174E-03  0.174E-03
   4.950  0.381E-03  0.765E-04  0.152E-03  0.152E-03
   4.960  0.345E-03  0.803E-04  0.132E-03  0.132E-03
   4.970  0.312E-03  0.835E-04  0.114E-03  0.114E-03
   4.980  0.283E-03  0.862E-04  0.984E-04  0.984E-04
   4.990  0.257E-03  0.883E-04  0.845E-04  0.845E-04
   5.000  0.235E-03  0.896E-04  0.727E-04  0.727E-04
   5.010  0.216E-03  0.902E-04  0.629E-04  0.629E-04
